timestamp,session_time,Fp1,Fp2,C3,C4,P7,P8,O1,O2,EMG,IMU1_ax,IMU1_ay,IMU1_az,IMU1_gx,IMU1_gy,IMU1_gz,IMU2_ax,IMU2_ay,IMU2_az,IMU2_gx,IMU2_gy,IMU2_gz,IMU3_ax,IMU3_ay,IMU3_az,IMU3_gx,IMU3_gy,IMU3_gz
1749632457.1308959,0.651,-3469.820217170741,-3462.8173642238817,-3463.3259178192516,-321.7500701397741,-3500.9264123799103,-3470.5041168486023,-3480.5702808434107,-3480.4953466201246,2150,16412.0,14936.0,14400.0,-6708.0,9316.0,-17172.0,-4188.0,-900.0,-2000.0,-489.0,1181.0,1827.0,1115.0,3589.0,476.0,199.0,-125.0,-234.0
1749632457.2070348,0.728,-3470.350751471609,-3474.480626297668,-3461.6618785008045,-327.27621932640307,-3491.05357868118,-3474.5915289481313,-3480.0657237399487,-3491.792929684273,2144,16392.0,14884.0,14552.0,-6656.0,9416.0,-17228.0,-4168.0,-720.0,-2064.0,-475.0,1167.0,1812.0,1100.0,3582.0,452.0,198.0,-147.0,-242.0
1749632457.2418182,0.762,-3471.695570998856,-3497.8935745827644,-3464.5268636377887,-331.1992756961913,-3491.7784424011043,-3473.276683110199,-3479.5092122416754,-3476.485866112812,2145,16392.0,14896.0,14436.0,-6600.0,9460.0,-17224.0,-4128.0,-812.0,-2068.0,-485.0,1173.0,1795.0,1067.0,3591.0,465.0,193.0,-154.0,-230.0
1749632457.27516,0.796,-3469.575432041339,-3474.2533258203657,-3464.850579482386,-318.9175564995476,-3504.448320874372,-3465.281201485539,-3480.0727176007886,-3471.8998916476835,2146,16388.0,14816.0,14436.0,-6728.0,9488.0,-17148.0,-4064.0,-844.0,-2140.0,-500.0,1202.0,1854.0,1090.0,3603.0,475.0,194.0,-160.0,-232.0
1749632457.3250911,0.846,-3469.8471934911245,-3494.4735766319723,-3461.4680486432376,-327.5574724444714,-3490.4096439224054,-3474.308277584109,-3479.7010438532884,-3483.0615939869394,2161,16384.0,15124.0,14420.0,-6680.0,9496.0,-17200.0,-4068.0,-860.0,-2096.0,-472.0,1181.0,1819.0,1070.0,3598.0,460.0,198.0,-157.0,-239.0
1749632457.375104,0.896,-3469.2127504006326,-3459.8189961694475,-3464.4224552866767,-318.7781788442348,-3504.2474971559636,-3465.033418987205,-3479.501718819346,-3471.205501178563,2159,16492.0,14900.0,14556.0,-6636.0,9464.0,-17192.0,-4224.0,-804.0,-1984.0,-485.0,1191.0,1811.0,1120.0,3576.0,474.0,196.0,-142.0,-230.0
1749632457.425102,0.946,-3469.9321189441825,-3485.607858894212,-3461.3186797581525,-328.197910272826,-3490.3956562007256,-3474.4896184044624,-3479.3143832611304,-3483.558657668073,2148,16352.0,14872.0,14444.0,-6676.0,9476.0,-17200.0,-4276.0,-764.0,-2056.0,-456.0,1156.0,1809.0,1087.0,3591.0,449.0,199.0,-132.0,-237.0
1749632457.4752908,0.996,-3469.5974127468357,-3483.411786590432,-3465.4740322201287,-322.4664413143922,-3499.9312858946664,-3465.1363286538513,-3479.3163815070843,-3472.379970238205,2144,16392.0,14820.0,14568.0,-6696.0,9496.0,-17232.0,-4136.0,-756.0,-2116.0,-471.0,1180.0,1826.0,1085.0,3586.0,452.0,193.0,-143.0,-246.0
1749632457.525082,1.046,-3469.875668495973,-3476.5023516419355,-3461.044420500925,-329.018190237068,-3490.167856161935,-3474.3747192620895,-3478.5930164716265,-3483.770471739229,2152,16352.0,14912.0,14524.0,-6556.0,9308.0,-17144.0,-4016.0,-804.0,-1980.0,-459.0,1181.0,1804.0,1115.0,3576.0,489.0,224.0,-135.0,-235.0
1749632457.575062,1.096,-3468.381480083642,-3481.3470989581465,-3463.323919573297,-317.16709304357687,-3502.6913631190496,-3464.5838136474863,-3479.052113479628,-3470.368236123709,2156,16376.0,14900.0,14448.0,-6676.0,9444.0,-17200.0,-4156.0,-808.0,-2076.0,-485.0,1174.0,1838.0,1078.0,3598.0,468.0,198.0,-137.0,-237.0
1749632457.625077,1.146,-3468.941988073824,-3476.9824302324573,-3460.9205292517577,-327.90316899456604,-3489.2416691621147,-3473.411065150626,-3479.367836340408,-3483.0161338914795,2146,16392.0,14748.0,14492.0,-6656.0,9440.0,-17248.0,-4176.0,-860.0,-2136.0,-477.0,1175.0,1839.0,1111.0,3632.0,491.0,205.0,-134.0,-243.0
1749632457.6750798,1.196,-3469.415072803506,-3474.5021074416763,-3465.2911927153104,-321.39038586799927,-3501.152713734235,-3464.8380904451715,-3478.4851111900934,-3472.90101287079,2163,16368.0,14904.0,14552.0,-6612.0,9420.0,-17196.0,-4136.0,-988.0,-1916.0,-476.0,1174.0,1831.0,1092.0,3570.0,468.0,211.0,-131.0,-255.0
1749632457.7251,1.246,-3468.852566567369,-3494.6504213989288,-3460.8076283553396,-327.64189833604075,-3488.6846581023524,-3473.063869916066,-3478.9122362628264,-3481.8786323819913,2145,16368.0,14840.0,14476.0,-6688.0,9352.0,-17252.0,-4220.0,-688.0,-1932.0,-480.0,1182.0,1835.0,1090.0,3632.0,484.0,208.0,-131.0,-250.0
1749632457.7750669,1.296,-3468.658736709802,-3462.8997918694963,-3464.699711912836,-320.8103949797624,-3501.4034936015005,-3464.05277978513,-3478.2712988729836,-3471.7954832965715,2162,16360.0,14916.0,14452.0,-6620.0,9488.0,-17252.0,-4160.0,-740.0,-1868.0,-487.0,1192.0,1834.0,1111.0,3648.0,500.0,192.0,-156.0,-236.0
1749632457.8251112,1.346,-3469.240226282504,-3485.5638974832177,-3460.7376897469394,-328.23837475340065,-3488.7001445084984,-3473.1592861603845,-3477.8666540672366,-3482.5845127653492,2144,16308.0,14840.0,14472.0,-6668.0,9352.0,-17268.0,-4136.0,-916.0,-1980.0,-491.0,1171.0,1807.0,1092.0,3633.0,460.0,193.0,-129.0,-238.0
1749632457.875081,1.396,-3468.000314667858,-3479.1705095524203,-3464.364006592513,-319.73134216443805,-3500.978366774722,-3463.3478985247493,-3477.855663714488,-3470.049515893998,2159,16416.0,14828.0,14472.0,-6668.0,9384.0,-17204.0,-4136.0,-804.0,-1952.0,-455.0,1182.0,1836.0,1090.0,3556.0,466.0,206.0,-145.0,-251.0
1749632457.9250822,1.446,-3469.2032587323492,-3477.2237184314395,-3460.730695886099,-329.0991191982173,-3488.798058560259,-3472.9125027850278,-3477.6338584135606,-3482.8647667604405,2150,16480.0,14808.0,14444.0,-6664.0,9352.0,-17228.0,-4096.0,-620.0,-1988.0,-472.0,1163.0,1827.0,1122.0,3584.0,462.0,215.0,-127.0,-239.0
1749632457.975083,1.496,-3468.102225211528,-3480.659202788377,-3464.279580700944,-319.36866052373176,-3501.314072095045,-3462.911281783734,-3477.729774219367,-3470.8393226074368,2152,16412.0,14936.0,14424.0,-6764.0,9404.0,-17212.0,-4188.0,-864.0,-2016.0,-512.0,1182.0,1814.0,1083.0,3595.0,465.0,206.0,-145.0,-247.0
1749632458.0250921,1.546,-3468.4489208846,-3475.587154994864,-3460.378005475164,-328.55859366757795,-3487.94880402968,-3472.087726767388,-3478.2847870331752,-3481.894118788137,2155,16500.0,14796.0,14456.0,-6648.0,9448.0,-17272.0,-4044.0,-776.0,-1956.0,-464.0,1198.0,1834.0,1089.0,3608.0,454.0,206.0,-139.0,-248.0
1749632458.075119,1.596,-3467.783504981816,-3472.4234320877113,-3463.7320613094644,-319.14535653833826,-3501.5948256516244,-3463.001702413166,-3477.4804930365676,-3470.758893207776,2155,16336.0,14852.0,14552.0,-6604.0,9460.0,-17176.0,-4008.0,-960.0,-1992.0,-466.0,1194.0,1805.0,1084.0,3627.0,468.0,198.0,-142.0,-228.0
1749632458.125073,1.646,-3468.367492361962,-3494.6818937727085,-3460.3275497648183,-327.8407238084941,-3487.67154740352,-3471.65910301019,-3477.0433767340633,-3480.9259686232767,2146,16364.0,14936.0,14424.0,-6680.0,9388.0,-17240.0,-4296.0,-840.0,-2032.0,-473.0,1172.0,1823.0,1136.0,3638.0,476.0,211.0,-148.0,-245.0
1749632458.175076,1.696,-3467.185030318502,-3460.062282614384,-3463.379370898529,-318.8646029817585,-3501.4219773765776,-3462.5695817255473,-3477.1163127113955,-3469.874669372996,2159,16380.0,15004.0,14596.0,-6660.0,9444.0,-17216.0,-3992.0,-900.0,-2124.0,-480.0,1194.0,1791.0,1106.0,3600.0,469.0,199.0,-138.0,-248.0
1749632458.2250738,1.746,-3468.9509801806184,-3485.697280400667,-3460.3989870576843,-328.8947985493897,-3487.5341679941616,-3471.504238948731,-3476.4299152260915,-3481.4994652121622,2154,16308.0,14960.0,14480.0,-6720.0,9508.0,-17212.0,-4144.0,-892.0,-1924.0,-454.0,1191.0,1822.0,1067.0,3667.0,473.0,217.0,-139.0,-245.0
1749632458.275069,1.796,-3466.7054512894692,-3474.845805745817,-3462.80387606369,-318.25214059676415,-3500.5367544188207,-3461.822237738638,-3476.6367336823623,-3468.0153015125156,2157,16476.0,14896.0,14516.0,-6664.0,9380.0,-17216.0,-4136.0,-752.0,-1976.0,-465.0,1210.0,1851.0,1075.0,3635.0,457.0,194.0,-175.0,-228.0
1749632458.325075,1.846,-3466.8758017570735,-3470.2368514522136,-3458.3682696066226,-324.66601054859285,-3489.8741140066522,-3471.05213580157,-3476.3884516225403,-3480.5003422350096,2153,16440.0,14916.0,14480.0,-6668.0,9364.0,-17324.0,-4076.0,-752.0,-2040.0,-470.0,1182.0,1834.0,1078.0,3580.0,479.0,197.0,-128.0,-252.0
1749632458.375086,1.896,-3466.9412443120773,-3479.164514814557,-3462.5805720782964,-317.7345948945993,-3500.7605579657024,-3461.8492140590206,-3476.745138525383,-3468.580305556095,2159,16304.0,14960.0,14520.0,-6656.0,9452.0,-17244.0,-4144.0,-904.0,-2052.0,-465.0,1179.0,1834.0,1106.0,3611.0,459.0,199.0,-146.0,-257.0
1749632458.425086,1.946,-3466.66998242378,-3474.2718095954433,-3458.035062093742,-324.01108543706954,-3488.588242735057,-3470.2118733777847,-3477.190247811705,-3479.792463605698,2152,16340.0,14844.0,14548.0,-6708.0,9392.0,-17276.0,-4120.0,-836.0,-1976.0,-493.0,1169.0,1787.0,1070.0,3573.0,457.0,226.0,-138.0,-247.0
1749632458.475094,1.996,-3466.517116608276,-3471.253459081466,-3462.0470404084967,-317.5402654755432,-3500.944396593499,-3461.8082500169576,-3476.614752976865,-3468.9265016676786,2148,16352.0,14864.0,14484.0,-6580.0,9476.0,-17204.0,-4056.0,-852.0,-2004.0,-472.0,1166.0,1816.0,1105.0,3612.0,479.0,205.0,-119.0,-252.0
1749632458.52509,2.046,-3466.6025416228226,-3489.9995039402847,-3457.6798738753646,-323.609937561743,-3488.2260606558393,-3470.2573334732456,-3476.018276559505,-3479.2394490378438,2151,16316.0,14836.0,14420.0,-6648.0,9444.0,-17252.0,-4188.0,-872.0,-2088.0,-468.0,1171.0,1844.0,1072.0,3558.0,460.0,228.0,-131.0,-249.0
1749632458.5750709,2.096,-3466.0760038138633,-3456.8266228528764,-3461.5584692726698,-316.9727636245207,-3500.4408386130144,-3461.6359013033984,-3476.3864533765855,-3468.121208548094,2148,16304.0,14800.0,14492.0,-6640.0,9404.0,-17184.0,-4200.0,-872.0,-2108.0,-469.0,1207.0,1835.0,1087.0,3606.0,489.0,188.0,-140.0,-255.0
1749632458.6251252,2.146,-3467.523233446268,-3481.8991144030233,-3457.5984453527267,-324.52863113923445,-3488.088681246481,-3470.368735685198,-3476.0882151679057,-3479.792463605698,2149,16396.0,14952.0,14432.0,-6680.0,9356.0,-17220.0,-4200.0,-724.0,-2056.0,-481.0,1190.0,1824.0,1068.0,3525.0,450.0,222.0,-141.0,-229.0
1749632458.6753101,2.196,-3465.59992171525,-3471.203502932609,-3461.048416992833,-316.1419928690187,-3499.271864729746,-3461.1058665640194,-3476.0032897148476,-3466.5351008218645,2156,16364.0,14896.0,14480.0,-6696.0,9272.0,-17284.0,-3876.0,-784.0,-2092.0,-485.0,1147.0,1818.0,1087.0,3594.0,485.0,215.0,-141.0,-244.0
1749632458.725183,2.246,-3467.7385444478446,-3472.941976912853,-3457.4915391941713,-325.5607251746327,-3487.798935583107,-3470.7289195184608,-3475.4847448897062,-3480.16363779171,2145,16452.0,14880.0,14408.0,-6680.0,9488.0,-17372.0,-4024.0,-832.0,-1944.0,-439.0,1176.0,1805.0,1069.0,3598.0,467.0,211.0,-120.0,-241.0
1749632458.775114,2.296,-3468.021296250379,-3465.1013593496514,-3462.3977325734772,-322.2541276817474,-3494.5155397970125,-3463.018187942289,-3476.394446360403,-3470.1878944263335,2154,16360.0,14856.0,14468.0,-6700.0,9472.0,-17308.0,-3976.0,-792.0,-2180.0,-488.0,1189.0,1829.0,1097.0,3629.0,464.0,222.0,-139.0,-234.0
1749632458.8250802,2.346,-3467.71206768895,-3483.328859383328,-3457.416604970885,-325.15108475400024,-3487.0800666010455,-3470.332267696532,-3475.483745766728,-3479.4647512691913,2160,16420.0,14784.0,14560.0,-6676.0,9416.0,-17148.0,-4096.0,-952.0,-1992.0,-472.0,1180.0,1817.0,1072.0,3583.0,446.0,218.0,-130.0,-245.0
1749632458.875076,2.396,-3465.3461444790537,-3472.682204938794,-3460.3165594120696,-315.7713182444952,-3499.2413914789427,-3461.009950758213,-3475.764998884797,-3466.5131201163676,2148,16372.0,14880.0,14464.0,-6680.0,9468.0,-17208.0,-4116.0,-972.0,-2024.0,-445.0,1191.0,1849.0,1094.0,3557.0,475.0,213.0,-140.0,-256.0
1749632458.925075,2.446,-3467.8619361355227,-3476.871028020504,-3457.228270289692,-326.00233753053396,-3486.8887345509215,-3470.0650023001435,-3474.9936759464354,-3479.2819117643726,2148,16428.0,14908.0,14508.0,-6672.0,9396.0,-17220.0,-4000.0,-872.0,-2092.0,-486.0,1195.0,1825.0,1112.0,3614.0,454.0,209.0,-143.0,-243.0
1749632458.975061,2.496,-3464.983962399836,-3454.813390053915,-3460.0308102406034,-316.03358802599763,-3499.0190866165262,-3460.8326064297685,-3475.677575624296,-3467.054145208495,2150,16364.0,14952.0,14372.0,-6668.0,9388.0,-17256.0,-3988.0,-808.0,-2032.0,-473.0,1202.0,1838.0,1102.0,3592.0,460.0,211.0,-141.0,-245.0
1749632459.0250711,2.546,-3467.842952798957,-3483.1680005840067,-3457.2832220534347,-325.95487918911925,-3486.296754186959,-3469.98207509304,-3474.843307938374,-3479.0416226883676,2153,16364.0,14892.0,14420.0,-6752.0,9424.0,-17264.0,-4112.0,-808.0,-2148.0,-470.0,1176.0,1853.0,1112.0,3635.0,459.0,216.0,-126.0,-242.0
1749632459.075092,2.596,-3466.5081245014812,-3480.656704980934,-3461.6973473664934,-320.02258651227794,-3495.1434885881526,-3461.1648148196714,-3475.2784259949235,-3467.82446902388,2160,16444.0,14924.0,14444.0,-6632.0,9436.0,-17236.0,-4088.0,-672.0,-2072.0,-489.0,1163.0,1798.0,1046.0,3617.0,468.0,219.0,-147.0,-232.0
1749632459.125087,2.646,-3467.7450387471963,-3474.5140969174026,-3457.1263597460224,-326.5918200870538,-3486.156876970157,-3470.0200417661717,-3474.5545613979766,-3479.481236798315,2157,16348.0,14872.0,14396.0,-6792.0,9424.0,-17232.0,-4260.0,-744.0,-1956.0,-456.0,1147.0,1794.0,1049.0,3612.0,446.0,223.0,-149.0,-258.0
1749632459.175091,2.696,-3466.5530850354535,-3461.652386832522,-3461.5284955833554,-320.09452336663287,-3496.003733471481,-3461.175305610932,-3475.0835970143794,-3468.165169959089,2157,16364.0,14760.0,14444.0,-6684.0,9624.0,-17228.0,-4200.0,-1004.0,-2064.0,-472.0,1158.0,1815.0,1102.0,3589.0,453.0,198.0,-141.0,-236.0
1749632459.225064,2.746,-3467.786502350748,-3484.177614352419,-3457.008962796207,-326.2940814398624,-3485.6023637178378,-3469.576431164316,-3473.8336941699617,-3478.649966481324,2144,16492.0,14856.0,14484.0,-6716.0,9416.0,-17380.0,-4180.0,-860.0,-2072.0,-471.0,1150.0,1815.0,1111.0,3580.0,485.0,214.0,-128.0,-244.0
1749632459.275106,2.796,-3464.1222188320417,-3471.886903048981,-3458.6005656988104,-315.39514844359735,-3497.414994676709,-3460.7042191272044,-3475.114070265182,-3465.289194469356,2145,16296.0,14656.0,14380.0,-6660.0,9472.0,-17168.0,-4160.0,-780.0,-2060.0,-467.0,1153.0,1797.0,1096.0,3618.0,482.0,196.0,-138.0,-269.0
1749632459.325067,2.846,-3467.891410263349,-3477.5254535705394,-3457.034939993613,-327.0009609461976,-3485.407035175804,-3469.106843365055,-3473.969075333366,-3478.5210796172714,2157,16388.0,14844.0,14400.0,-6580.0,9464.0,-17264.0,-4104.0,-980.0,-2244.0,-447.0,1177.0,1820.0,1088.0,3672.0,476.0,192.0,-138.0,-236.0
1749632459.375107,2.896,-3465.5709471489126,-3459.0256925255885,-3460.690730967013,-318.93004553676195,-3496.455337057154,-3460.3550256466897,-3474.3247631132317,-3467.156055752165,2148,16372.0,14940.0,14464.0,-6728.0,9336.0,-17304.0,-4068.0,-752.0,-1980.0,-500.0,1176.0,1810.0,1104.0,3567.0,445.0,205.0,-137.0,-235.0
1749632459.425091,2.946,-3467.8844164025086,-3483.7280090127,-3457.0818987735393,-326.4199709349836,-3484.8710056985624,-3468.957974041459,-3473.3551142639058,-3478.005532161061,2157,16416.0,14792.0,14456.0,-6748.0,9412.0,-17272.0,-4040.0,-872.0,-2044.0,-498.0,1201.0,1800.0,1062.0,3611.0,464.0,180.0,-135.0,-236.0
1749632459.475073,2.996,-3464.7806408739852,-3475.6945607149078,-3460.303071251878,-317.55125582829186,-3495.9642681138835,-3459.389373289272,-3473.9900569158863,-3465.6513765485734,2152,16412.0,14876.0,14536.0,-6664.0,9448.0,-17208.0,-4188.0,-700.0,-2024.0,-475.0,1188.0,1805.0,1084.0,3590.0,475.0,206.0,-137.0,-238.0
1749632459.525131,3.046,-3464.448932045571,-3464.703208843256,-3455.540252019793,-320.62405854452356,-3489.099294137871,-3466.8558192975306,-3473.84118759229,-3476.9769350560828,2153,16376.0,14896.0,14528.0,-6668.0,9340.0,-17212.0,-4200.0,-780.0,-1976.0,-458.0,1167.0,1823.0,1088.0,3554.0,470.0,197.0,-158.0,-249.0
1749632459.576114,3.097,-3464.8470825519657,-3457.806762493463,-3460.1856743020626,-317.7830523589912,-3496.814022205952,-3459.6076816597797,-3473.982563493557,-3466.141945930355,2152,16348.0,14860.0,14436.0,-6688.0,9396.0,-17320.0,-4128.0,-896.0,-2036.0,-468.0,1187.0,1806.0,1089.0,3620.0,464.0,227.0,-172.0,-245.0
1749632459.62591,3.146,-3464.3340329031985,-3476.887513549628,-3455.174073448667,-320.37827429214406,-3488.286507595957,-3466.766397791075,-3473.6098906230795,-3476.4498976856344,2149,16400.0,14916.0,14592.0,-6700.0,9472.0,-17296.0,-4136.0,-804.0,-2008.0,-464.0,1179.0,1800.0,1062.0,3578.0,480.0,214.0,-131.0,-242.0
1749632459.675182,3.196,-3464.2735859630807,-3473.537953768725,-3459.8005123943703,-316.0975318965354,-3496.0951532238905,-3458.8983043460016,-3473.668339317243,-3464.5928057542806,2152,16408.0,14844.0,14480.0,-6700.0,9428.0,-17272.0,-4180.0,-764.0,-1996.0,-504.0,1164.0,1804.0,1078.0,3603.0,450.0,226.0,-140.0,-253.0
1749632459.725159,3.246,-3467.8819185950656,-3475.4128080353507,-3457.2012939693086,-326.6737481711803,-3484.675677156529,-3468.4159498263534,-3472.5368325456184,-3478.0604839248044,2150,16372.0,14824.0,14460.0,-6628.0,9456.0,-17320.0,-4144.0,-704.0,-1980.0,-451.0,1158.0,1816.0,1074.0,3653.0,471.0,215.0,-153.0,-250.0
1749632459.775098,3.296,-3464.1791688417393,-3456.177192917728,-3459.6846141290202,-316.4332372168585,-3496.9768792512273,-3459.0486723540635,-3473.466516475858,-3465.3406493026796,2143,16424.0,14804.0,14388.0,-6744.0,9380.0,-17260.0,-4264.0,-824.0,-2040.0,-478.0,1195.0,1801.0,1089.0,3643.0,466.0,228.0,-134.0,-254.0
1749632459.8250759,3.346,-3464.293068861135,-3477.390072407135,-3454.766431273989,-321.00772176775,-3486.808804712749,-3466.757405684281,-3473.5604340357104,-3476.545313929953,2152,16388.0,14916.0,14448.0,-6724.0,9472.0,-17216.0,-4064.0,-872.0,-2068.0,-484.0,1176.0,1818.0,1066.0,3601.0,474.0,224.0,-140.0,-244.0
1749632459.875079,3.396,-3463.5866889162885,-3471.398831474642,-3459.2020377310555,-315.55350943547603,-3496.171086570154,-3458.5076472619353,-3473.116823433855,-3463.975347754401,2144,16424.0,14916.0,14472.0,-6632.0,9452.0,-17248.0,-4224.0,-812.0,-1996.0,-442.0,1211.0,1811.0,1079.0,3581.0,462.0,205.0,-142.0,-226.0
1749632459.925065,3.446,-3464.322043427472,-3467.4532948378674,-3454.4921720167604,-321.94739692776164,-3486.792818745115,-3467.0531460855177,-3472.918997084379,-3476.957951719517,2155,16424.0,14836.0,14532.0,-6640.0,9512.0,-17304.0,-4060.0,-848.0,-2008.0,-473.0,1165.0,1837.0,1080.0,3580.0,477.0,212.0,-132.0,-244.0
1749632459.975056,3.496,-3463.4243314325013,-3455.7185954712145,-3458.8768232019934,-315.5894778626535,-3496.7665638645367,-3458.486166117926,-3473.17477256653,-3464.986959768767,2160,16344.0,14884.0,14536.0,-6648.0,9416.0,-17224.0,-3948.0,-860.0,-2048.0,-476.0,1199.0,1842.0,1067.0,3642.0,481.0,203.0,-154.0,-234.0
1749632460.025057,3.546,-3464.2061451621225,-3478.6764432402183,-3454.3582895378217,-321.34342708807316,-3485.7662198860908,-3466.951735103337,-3472.4229325262227,-3476.376961708303,2153,16480.0,14836.0,14396.0,-6776.0,9440.0,-17240.0,-4112.0,-820.0,-2104.0,-462.0,1188.0,1832.0,1124.0,3583.0,481.0,191.0,-151.0,-255.0
1749632460.18078,3.701,-3465.111850140911,-3470.201382586525,-3456.278603899909,-323.97411788691494,-3482.531059686072,-3464.5208688999255,-3475.2819229253437,-3474.7823614367676,2158,16300.0,14892.0,14440.0,-6596.0,9464.0,-17268.0,-3832.0,-944.0,-1868.0,-479.0,1176.0,1828.0,1121.0,3584.0,479.0,202.0,-141.0,-255.0
1749632460.2420979,3.763,-3467.528229061154,-3476.4828687438808,-3457.153835627894,-327.0998741209357,-3484.221076201925,-3466.6559947021,-3470.8827844569428,-3469.5524522128644,2147,16340.0,14872.0,14400.0,-6692.0,9444.0,-17260.0,-4040.0,-816.0,-2116.0,-471.0,1179.0,1787.0,1088.0,3583.0,464.0,206.0,-141.0,-238.0
1749632460.282536,3.803,-3464.7831386814287,-3489.7507223189737,-3456.1986740617363,-323.6968612607552,-3482.3307355291527,-3464.2036473546796,-3475.0021684917415,-3472.4404171783226,2155,16372.0,14708.0,14436.0,-6676.0,9396.0,-17248.0,-4176.0,-872.0,-2116.0,-442.0,1169.0,1831.0,1087.0,3604.0,456.0,210.0,-144.0,-246.0
1749632460.3247628,3.845,-3464.2620960488434,-3469.5649412500793,-3454.0026017579553,-322.65977161047124,-3484.566273190531,-3467.0356614334178,-3471.8834061185607,-3476.6237450836593,2149,16288.0,14964.0,14568.0,-6640.0,9504.0,-17184.0,-4176.0,-772.0,-1944.0,-492.0,1179.0,1812.0,1113.0,3559.0,472.0,201.0,-153.0,-246.0
1749632460.375087,3.896,-3462.1974084165586,-3452.5129093990217,-3457.35515890779,-313.7296104406846,-3496.2015598209573,-3457.7832831035,-3472.5128535941662,-3463.7140770958754,2146,16380.0,14844.0,14468.0,-6684.0,9460.0,-17156.0,-4204.0,-788.0,-2100.0,-490.0,1159.0,1788.0,1101.0,3561.0,465.0,223.0,-134.0,-247.0
1749632460.425051,3.946,-3464.34402413297,-3479.332367474719,-3453.9661337692896,-322.3750215619828,-3483.628096714985,-3466.8613144739047,-3471.8564297981775,-3475.7260330886884,2143,16436.0,14996.0,14484.0,-6628.0,9420.0,-17132.0,-4204.0,-868.0,-2120.0,-467.0,1176.0,1815.0,1058.0,3585.0,465.0,207.0,-154.0,-251.0
1749632460.475069,3.996,-3463.8814301945486,-3480.271543073242,-3458.6650091308366,-318.3490555255479,-3490.9851387572453,-3459.037682001315,-3472.532336492221,-3465.1692997120977,2160,16408.0,14852.0,14428.0,-6668.0,9376.0,-17136.0,-4208.0,-924.0,-2088.0,-454.0,1178.0,1829.0,1102.0,3570.0,482.0,221.0,-153.0,-240.0
1749632460.525043,4.046,-3464.5888092623723,-3470.706938812964,-3453.947150432724,-323.0664146621722,-3483.587132672922,-3467.0276684496007,-3471.355869186624,-3476.2555682665784,2161,16324.0,14896.0,14492.0,-6644.0,9404.0,-17156.0,-4224.0,-904.0,-1872.0,-472.0,1192.0,1830.0,1085.0,3571.0,479.0,213.0,-144.0,-223.0
1749632460.575113,4.096,-3461.689853944165,-3451.6396759169907,-3456.651276770386,-313.14961955244775,-3495.7304733372303,-3457.6833708057843,-3472.144676777086,-3463.3518950166576,2153,16440.0,14884.0,14516.0,-6796.0,9544.0,-17252.0,-4080.0,-696.0,-2008.0,-451.0,1172.0,1814.0,1100.0,3609.0,467.0,196.0,-143.0,-249.0
1749632460.6250482,4.146,-3464.4789057348853,-3479.8494136153954,-3453.7703056657674,-322.98748394697714,-3483.0331189820913,-3466.4107100112096,-3471.573178434155,-3475.6510988654018,2157,16424.0,14796.0,14464.0,-6628.0,9544.0,-17244.0,-4116.0,-780.0,-1912.0,-458.0,1165.0,1787.0,1049.0,3584.0,465.0,199.0,-114.0,-245.0
1749632460.6807349,4.201,-3461.1678121886025,-3465.668361639185,-3456.2855977607483,-312.2069470235046,-3494.813278444204,-3457.2397602039287,-3471.8734148887893,-3462.1339641075087,2159,16444.0,14920.0,14416.0,-6640.0,9328.0,-17080.0,-4140.0,-884.0,-1908.0,-451.0,1157.0,1799.0,1082.0,3589.0,467.0,227.0,-140.0,-231.0
1749632460.725078,4.246,-3464.4629197672507,-3471.1810226656225,-3453.884205685163,-323.6928647688466,-3482.8682636908607,-3466.630517066183,-3471.0651244002725,-3476.129179209969,2150,16364.0,14940.0,14528.0,-6640.0,9432.0,-17300.0,-3984.0,-748.0,-2108.0,-473.0,1183.0,1843.0,1106.0,3590.0,475.0,218.0,-153.0,-245.0
1749632460.775095,4.296,-3463.230501574934,-3458.4077349642203,-3458.1549568510004,-317.45134353057665,-3492.582736397712,-3457.903677422247,-3471.743528901759,-3464.891043962961,2148,16388.0,14864.0,14352.0,-6644.0,9416.0,-17248.0,-4064.0,-796.0,-1932.0,-485.0,1170.0,1816.0,1093.0,3581.0,488.0,207.0,-137.0,-240.0
1749632460.82512,4.346,-3464.5888092623723,-3480.6741896330345,-3453.697869249924,-323.1848107349647,-3482.30375920877,-3466.3177915743345,-3470.8742919116366,-3475.5611777974577,2155,16348.0,14828.0,14588.0,-6660.0,9384.0,-17140.0,-4040.0,-832.0,-2128.0,-482.0,1179.0,1823.0,1083.0,3616.0,481.0,222.0,-146.0,-246.0
1749632460.881762,4.402,-3464.855575097272,-3475.569670342764,-3456.5074030616765,-323.1033822123268,-3483.801444551521,-3462.192912363161,-3473.23422038367,-3469.323153489608,2154,16456.0,14976.0,14524.0,-6640.0,9396.0,-17164.0,-4204.0,-756.0,-2028.0,-480.0,1183.0,1794.0,1080.0,3616.0,447.0,204.0,-153.0,-245.0
1749632460.92503,4.446,-3464.556337765615,-3474.1898815113163,-3453.7508227677135,-324.16045432215384,-3482.406169313928,-3466.1869064643274,-3470.222863730534,-3475.197996595263,2148,16408.0,14884.0,14456.0,-6660.0,9444.0,-17188.0,-4012.0,-1040.0,-1904.0,-469.0,1187.0,1818.0,1119.0,3600.0,458.0,199.0,-144.0,-267.0
1749632460.975043,4.496,-3462.326295280611,-3456.086772288295,-3457.4810484029113,-316.37828545311515,-3493.272131251947,-3457.1263597460224,-3471.2434678516947,-3464.150194275402,2143,16300.0,14872.0,14424.0,-6736.0,9368.0,-17304.0,-4216.0,-896.0,-2028.0,-470.0,1179.0,1804.0,1079.0,3587.0,472.0,206.0,-137.0,-245.0
1749632461.025075,4.546,-3464.6297733044353,-3480.7011659534173,-3453.7767999651196,-323.3956256831438,-3482.0579749563904,-3465.8297199999956,-3470.302294007217,-3475.0511255176216,2156,16388.0,15000.0,14416.0,-6692.0,9468.0,-17116.0,-4228.0,-904.0,-2020.0,-473.0,1156.0,1804.0,1074.0,3601.0,470.0,208.0,-121.0,-238.0
1749632461.0750332,4.596,-3462.2633505330505,-3469.6408745963427,-3457.5769642087175,-315.3312045730596,-3493.47795058524,-3456.9974728819693,-3470.906763408394,-3462.9097830992678,2157,16372.0,14896.0,14428.0,-6632.0,9432.0,-17160.0,-4216.0,-860.0,-2028.0,-489.0,1182.0,1825.0,1077.0,3618.0,469.0,204.0,-149.0,-235.0
1749632461.1250482,4.646,-3464.7796417510085,-3474.2233521310513,-3453.873714893903,-324.0460547412699,-3481.8616472913795,-3465.766275690946,-3469.758771107646,-3474.885271103414,2147,16288.0,14856.0,14564.0,-6576.0,9404.0,-17236.0,-4164.0,-808.0,-2064.0,-482.0,1179.0,1817.0,1101.0,3564.0,472.0,202.0,-148.0,-242.0
1749632461.1750379,4.696,-3461.8991702078783,-3454.443714552369,-3457.3221878495438,-314.9270593288016,-3493.7362238748337,-3456.8031434629133,-3470.8697958582393,-3463.363384930895,2153,16360.0,14884.0,14552.0,-6588.0,9428.0,-17272.0,-4000.0,-756.0,-2020.0,-478.0,1182.0,1834.0,1044.0,3655.0,493.0,213.0,-147.0,-232.0
1749632461.2250712,4.746,-3464.8430860600574,-3480.9224716928566,-3453.755318821111,-323.58146255689417,-3481.6143643545347,-3465.4250751942486,-3469.769761460395,-3474.560056574351,2153,16384.0,14848.0,14588.0,-6608.0,9568.0,-17268.0,-4260.0,-1028.0,-2004.0,-476.0,1173.0,1824.0,1080.0,3582.0,469.0,220.0,-128.0,-223.0
1749632461.275051,4.796,-3461.1473301675715,-3470.8797870880107,-3456.9160443593314,-313.77956658954224,-3493.319090031873,-3456.0363165779495,-3470.6155190605546,-3461.64589253317,2156,16248.0,14912.0,14500.0,-6744.0,9384.0,-17184.0,-4248.0,-940.0,-2168.0,-497.0,1186.0,1804.0,1070.0,3580.0,485.0,201.0,-161.0,-261.0
1749632461.3250759,4.846,-3461.377628013805,-3463.4473112609758,-3452.097773802015,-318.3450590336393,-3485.1292789881563,-3464.0562767155498,-3470.0150461512862,-3474.1858850194076,2158,16376.0,14828.0,14548.0,-6676.0,9592.0,-17152.0,-4148.0,-844.0,-2024.0,-473.0,1197.0,1824.0,1111.0,3664.0,463.0,214.0,-163.0,-242.0
1749632461.375057,4.896,-3461.2927025607473,-3453.1923130234854,-3456.7232136247417,-314.4344917010655,-3494.232787994479,-3456.1866845860104,-3470.6819607385346,-3462.83884536789,2158,16356.0,14788.0,14504.0,-6680.0,9416.0,-17192.0,-4208.0,-892.0,-2104.0,-451.0,1170.0,1826.0,1089.0,3571.0,457.0,192.0,-145.0,-219.0
1749632461.4250681,4.946,-3461.3201784426187,-3474.5945263170634,-3451.8579842874988,-318.9765047551995,-3484.1741174219987,-3463.832972730156,-3470.433179117224,-3473.517971309181,2147,16236.0,14908.0,14428.0,-6696.0,9412.0,-17268.0,-4068.0,-820.0,-2048.0,-475.0,1176.0,1827.0,1103.0,3612.0,475.0,202.0,-157.0,-231.0
1749632461.4751308,4.996,-3461.049915677299,-3467.67709838475,-3456.581837723474,-314.2646407949496,-3493.92355943305,-3456.181688971125,-3470.6145199375774,-3461.6219135817187,2153,16376.0,14892.0,14428.0,-6736.0,9376.0,-17276.0,-4308.0,-864.0,-2016.0,-460.0,1174.0,1845.0,1093.0,3567.0,472.0,219.0,-122.0,-245.0
1749632461.525064,5.046,-3461.2971986141442,-3467.5936716161573,-3451.8090272616178,-319.73883558676664,-3483.6345910143364,-3464.067766629787,-3469.905642185288,-3473.495491042196,2152,16300.0,14868.0,14496.0,-6584.0,9484.0,-17240.0,-4132.0,-956.0,-1948.0,-447.0,1153.0,1843.0,1073.0,3571.0,464.0,224.0,-149.0,-234.0
1749632461.5750778,5.096,-3460.543360327883,-3451.793540855472,-3456.0168336798947,-313.68464990671276,-3494.175837984781,-3455.7400766152236,-3470.289804970003,-3462.4337010006548,2148,16356.0,14848.0,14448.0,-6664.0,9412.0,-17132.0,-4120.0,-896.0,-2160.0,-470.0,1197.0,1828.0,1103.0,3587.0,438.0,198.0,-149.0,-258.0
1749632461.625082,5.146,-3461.41109863354,-3475.1954987878203,-3451.5312710739695,-319.3266973586914,-3483.135529087249,-3464.126215323951,-3470.155922491064,-3473.6708371246864,2156,16428.0,14856.0,14388.0,-6636.0,9448.0,-17240.0,-4220.0,-844.0,-1936.0,-469.0,1168.0,1828.0,1091.0,3661.0,463.0,205.0,-137.0,-255.0
1749632461.675047,5.196,-3460.4409502227245,-3467.5646970498196,-3455.7835384647296,-312.80042607193303,-3494.0499484896595,-3455.444835775475,-3470.3667374392435,-3461.0424222549705,2160,16380.0,14840.0,14312.0,-6676.0,9496.0,-17204.0,-4112.0,-800.0,-1964.0,-461.0,1168.0,1819.0,1093.0,3547.0,456.0,207.0,-120.0,-233.0
1749632461.725078,5.246,-3461.650888148056,-3469.217746015518,-3451.4848118555324,-319.9226742145627,-3482.8482812313177,-3464.2251284986887,-3469.949104034794,-3473.6293735211343,2158,16400.0,14848.0,14552.0,-6696.0,9404.0,-17184.0,-4216.0,-808.0,-2088.0,-482.0,1185.0,1795.0,1092.0,3571.0,475.0,197.0,-128.0,-258.0
1749632461.775093,5.296,-3460.111739201753,-3450.963769222947,-3455.4798050796753,-312.4472360995097,-3494.07792393302,-3455.5537401799847,-3470.200883025036,-3461.738311408557,2160,16372.0,14908.0,14444.0,-6680.0,9420.0,-17212.0,-4028.0,-840.0,-1952.0,-465.0,1179.0,1825.0,1091.0,3594.0,478.0,210.0,-139.0,-242.0
1749632461.825064,5.346,-3461.6773649069505,-3476.4394068943748,-3451.388396488237,-319.7123588278721,-3482.327238598733,-3464.1571881362424,-3469.4605328989664,-3473.5604340357104,2153,16408.0,14880.0,14496.0,-6744.0,9516.0,-17220.0,-4124.0,-732.0,-2148.0,-504.0,1188.0,1806.0,1096.0,3585.0,466.0,224.0,-147.0,-244.0
1749632461.8750641,5.396,-3459.8634571419307,-3467.483268527182,-3455.1231181768317,-311.69389737473693,-3493.7876787081573,-3455.189060293324,-3470.058008439303,-3461.0044555818386,2145,16364.0,14780.0,14484.0,-6592.0,9492.0,-17196.0,-4112.0,-752.0,-1996.0,-476.0,1174.0,1814.0,1067.0,3636.0,500.0,234.0,-144.0,-238.0
1749632461.9250948,5.446,-3461.7517995687485,-3469.984572900483,-3451.342436831288,-320.4117449118787,-3481.6947937541954,-3464.345023255947,-3469.307667083462,-3473.683825723389,2154,16344.0,14916.0,14528.0,-6636.0,9432.0,-17216.0,-4284.0,-1008.0,-2068.0,-451.0,1182.0,1798.0,1072.0,3571.0,451.0,193.0,-140.0,-224.0
1749632461.97508,5.496,-3461.9820974149816,-3458.4746762036893,-3456.1667021264675,-317.8390032457117,-3488.561765976163,-3457.1673237880855,-3470.3612422628694,-3464.029300395167,2161,16400.0,14908.0,14444.0,-6724.0,9380.0,-17228.0,-4084.0,-816.0,-2092.0,-473.0,1192.0,1822.0,1081.0,3668.0,465.0,210.0,-143.0,-255.0
1749632462.025069,5.546,-3461.8572070428377,-3476.748635455803,-3451.3304473555622,-320.52264756234257,-3481.1992287575276,-3464.5083798627115,-3469.287684623919,-3473.126315102138,2153,16372.0,14944.0,14404.0,-6608.0,9396.0,-17320.0,-4208.0,-792.0,-2056.0,-465.0,1169.0,1814.0,1096.0,3628.0,474.0,201.0,-150.0,-270.0
1749632462.075073,5.596,-3461.3181801966643,-3478.0954532290043,-3456.2741078465115,-316.72997674107273,-3488.3999080538642,-3456.4429596296504,-3469.753275931272,-3462.722447541052,2158,16340.0,14932.0,14532.0,-6656.0,9408.0,-17232.0,-4148.0,-844.0,-2008.0,-475.0,1189.0,1815.0,1097.0,3554.0,460.0,212.0,-149.0,-245.0
1749632462.1250749,5.646,-3461.931641704636,-3468.715187158011,-3451.338939900868,-321.57622274174963,-3481.186240158825,-3464.323542111938,-3468.81360077126,-3473.7617573156067,2159,16396.0,14896.0,14456.0,-6700.0,9508.0,-17224.0,-4172.0,-828.0,-2168.0,-473.0,1176.0,1842.0,1072.0,3571.0,458.0,188.0,-153.0,-260.0
1749632462.1750689,5.696,-3461.4735438196117,-3457.178314140834,-3456.2806021458628,-316.92280747566315,-3489.5164279808314,-3456.4019955875865,-3469.5279736999246,-3463.2909485150517,2158,16436.0,14912.0,14528.0,-6656.0,9472.0,-17316.0,-4168.0,-784.0,-2088.0,-472.0,1185.0,1830.0,1104.0,3623.0,466.0,210.0,-137.0,-262.0
1749632462.2250292,5.746,-3461.927145651239,-3477.795716335859,-3451.2255394429612,-321.2639968113896,-3480.7211484129602,-3463.998827144364,-3468.7371678635086,-3472.9294878756386,2152,16288.0,14888.0,14500.0,-6704.0,9388.0,-17212.0,-4168.0,-956.0,-2084.0,-480.0,1157.0,1826.0,1107.0,3578.0,455.0,218.0,-138.0,-261.0
1749632462.275133,5.796,-3460.878066525229,-3475.6021418395208,-3455.8085165391585,-315.6808976150629,-3489.4364981426597,-3455.7375788077807,-3469.360121039763,-3461.8272333535233,2162,16464.0,14908.0,14556.0,-6640.0,9616.0,-17144.0,-4196.0,-840.0,-2104.0,-482.0,1170.0,1779.0,1098.0,3576.0,458.0,220.0,-144.0,-257.0
1749632462.325079,5.846,-3462.1039904181944,-3469.3566241093426,-3451.32744998663,-322.0098421138337,-3480.3254957140084,-3464.280080262432,-3468.313040159707,-3473.3965778674574,2158,16324.0,14776.0,14512.0,-6632.0,9388.0,-17180.0,-4124.0,-896.0,-2056.0,-484.0,1175.0,1842.0,1079.0,3571.0,464.0,210.0,-137.0,-233.0
1749632462.375075,5.896,-3460.7656651902994,-3455.816009961487,-3455.638665633043,-315.8267695697271,-3490.237295208847,-3455.5502432495646,-3469.2652043569333,-3462.7304405248688,2152,16344.0,14872.0,14368.0,-6680.0,9392.0,-17280.0,-4068.0,-868.0,-2124.0,-478.0,1190.0,1834.0,1083.0,3541.0,457.0,218.0,-151.0,-240.0
1749632462.425056,5.946,-3462.245366319462,-3478.473121714368,-3451.4153728086203,-321.81201576435757,-3480.1106842739205,-3463.996329336921,-3468.3969664897877,-3473.0308988578204,2148,16408.0,15040.0,14436.0,-6732.0,9432.0,-17292.0,-4056.0,-788.0,-1968.0,-452.0,1164.0,1828.0,1083.0,3577.0,485.0,207.0,-157.0,-246.0
1749632462.475074,5.996,-3460.509889708148,-3467.634136096732,-3455.747570037552,-315.29773395332506,-3490.536032979015,-3455.2540032868387,-3468.914512191953,-3461.5020188244603,2156,16440.0,14888.0,14444.0,-6672.0,9380.0,-17208.0,-4136.0,-908.0,-1944.0,-469.0,1160.0,1861.0,1077.0,3575.0,470.0,205.0,-135.0,-251.0
1749632462.525113,6.046,-3462.4586790750836,-3471.98881359265,-3451.509789929961,-322.24963162835024,-3480.0762145312087,-3463.8799315100823,-3467.7740133135335,-3472.980942708962,2146,16368.0,14948.0,14420.0,-6688.0,9448.0,-17140.0,-4200.0,-864.0,-2108.0,-492.0,1183.0,1814.0,1091.0,3562.0,483.0,220.0,-153.0,-230.0
1749632462.5750558,6.096,-3460.2281370285914,-3453.70286486481,-3455.4478331444066,-314.48195004248026,-3491.1165234287414,-3454.957763324113,-3468.833583230803,-3461.7907653648576,2153,16428.0,14836.0,14484.0,-6756.0,9408.0,-17212.0,-4100.0,-932.0,-1872.0,-454.0,1181.0,1828.0,1099.0,3530.0,473.0,188.0,-144.0,-241.0
1749632462.625087,6.146,-3462.5985562918854,-3478.667950694913,-3451.574732923476,-321.83099910092346,-3479.7684846542456,-3463.6856020910263,-3467.2534702424373,-3472.5742996572612,2144,16468.0,14900.0,14512.0,-6668.0,9404.0,-17320.0,-3992.0,-700.0,-1972.0,-477.0,1189.0,1819.0,1093.0,3568.0,473.0,196.0,-152.0,-262.0
1749632462.67507,6.196,-3460.006331727663,-3466.701954359049,-3455.5297612285326,-313.7381029859904,-3491.219433095387,-3454.7529431137973,-3468.705195928239,-3460.6242892890323,2147,16360.0,14808.0,14484.0,-6676.0,9392.0,-17292.0,-4176.0,-780.0,-2080.0,-487.0,1154.0,1819.0,1084.0,3605.0,455.0,196.0,-129.0,-245.0
1749632462.725058,6.246,-3458.9457626874164,-3462.9432537190023,-3450.0111054642325,-316.2648849952084,-3484.1716196145558,-3461.396111788882,-3468.7361687405314,-3471.1140814261535,2156,16376.0,14848.0,14424.0,-6640.0,9428.0,-17184.0,-4056.0,-912.0,-2100.0,-470.0,1179.0,1846.0,1065.0,3624.0,462.0,209.0,-136.0,-233.0
1749632462.775083,6.296,-3459.44982022939,-3452.304092696797,-3455.216536175196,-313.70163499732433,-3491.621080532203,-3454.420235162406,-3468.6762213619018,-3460.895551177329,2157,16460.0,14764.0,14544.0,-6664.0,9400.0,-17216.0,-4200.0,-896.0,-1976.0,-463.0,1174.0,1827.0,1071.0,3605.0,467.0,198.0,-142.0,-251.0
1749632462.825069,6.346,-3462.603052345282,-3478.978677940807,-3451.5722351160325,-322.3800171768686,-3479.486731974689,-3463.173052003747,-3467.595170300623,-3472.295544346636,2156,16380.0,14828.0,14540.0,-6672.0,9472.0,-17224.0,-4112.0,-796.0,-2068.0,-490.0,1170.0,1821.0,1094.0,3536.0,463.0,208.0,-148.0,-250.0
1749632462.875075,6.396,-3458.9927214673426,-3468.7796305900374,-3454.7984032092577,-312.4996900558102,-3491.090546231335,-3453.779297772562,-3468.3470103409304,-3459.364395214843,2152,16424.0,14792.0,14448.0,-6628.0,9456.0,-17224.0,-4260.0,-948.0,-1992.0,-491.0,1167.0,1784.0,1106.0,3563.0,456.0,201.0,-113.0,-247.0
1749632462.925044,6.446,-3459.2215206291103,-3461.9776013615847,-3449.939668171366,-317.3669176390073,-3482.7363794578764,-3461.8017557176063,-3467.99631817595,-3471.4762635053708,2158,16292.0,14872.0,14544.0,-6652.0,9484.0,-17316.0,-4084.0,-796.0,-2040.0,-483.0,1184.0,1835.0,1094.0,3582.0,458.0,223.0,-115.0,-235.0
1749632462.975051,6.496,-3458.931774965736,-3451.030210900928,-3454.473188680194,-312.8598738890736,-3492.08867008551,-3454.040068869599,-3468.5083687017404,-3460.2960773910377,2153,16384.0,14820.0,14584.0,-6664.0,9448.0,-17220.0,-4120.0,-816.0,-2116.0,-460.0,1180.0,1789.0,1104.0,3643.0,472.0,207.0,-129.0,-243.0
1749632463.0250611,6.546,-3459.177059656627,-3472.7311619646744,-3449.4790724788986,-316.94079168925185,-3482.048982849596,-3461.8132456318435,-3467.9453629041154,-3471.3204003209353,2143,16452.0,14916.0,14532.0,-6632.0,9468.0,-17216.0,-4124.0,-688.0,-1856.0,-489.0,1176.0,1822.0,1063.0,3576.0,459.0,218.0,-143.0,-246.0
1749632463.0750499,6.596,-3458.5825814852215,-3466.924758782954,-3454.1199987077707,-311.56650919515005,-3491.4302480435667,-3453.5904635298803,-3468.151182237408,-3459.013203488374,2154,16520.0,14960.0,14492.0,-6628.0,9352.0,-17192.0,-4064.0,-872.0,-1988.0,-469.0,1196.0,1828.0,1092.0,3592.0,477.0,219.0,-149.0,-246.0
1749632463.125058,6.646,-3459.3678921452633,-3463.8754354566854,-3449.4730777410364,-318.1442353152317,-3481.650832343201,-3462.251860618813,-3467.3264062197695,-3471.894896032798,2155,16332.0,14840.0,14456.0,-6620.0,9368.0,-17180.0,-4052.0,-720.0,-1912.0,-485.0,1157.0,1829.0,1127.0,3608.0,482.0,199.0,-145.0,-258.0
1749632463.175078,6.696,-3458.3537823234537,-3449.8547427183084,-3453.8941969149346,-312.15599175166983,-3492.0606946421494,-3453.801778039548,-3468.188649349052,-3460.036305416978,2150,16288.0,14960.0,14480.0,-6684.0,9524.0,-17200.0,-4088.0,-920.0,-1940.0,-466.0,1168.0,1806.0,1066.0,3589.0,482.0,221.0,-137.0,-238.0
1749632463.225089,6.746,-3459.3958675886233,-3473.7812402136615,-3449.4066360630554,-318.18170242687495,-3480.9429537138885,-3462.209397892284,-3467.463785629128,-3471.767008291722,2147,16460.0,14900.0,14504.0,-6684.0,9460.0,-17172.0,-4080.0,-784.0,-1996.0,-462.0,1196.0,1813.0,1109.0,3639.0,473.0,204.0,-140.0,-263.0
1749632463.275048,6.796,-3457.8732041714434,-3465.562954165096,-3453.525520536366,-311.5375346288126,-3492.1251380741764,-3453.077413881113,-3467.7105690044846,-3458.779408711721,2144,16336.0,14936.0,14440.0,-6644.0,9364.0,-17272.0,-4172.0,-968.0,-2056.0,-489.0,1178.0,1841.0,1062.0,3562.0,460.0,200.0,-146.0,-250.0
1749632463.325056,6.846,-3458.416227509526,-3464.384488613545,-3449.4276176455755,-319.518029408816,-3480.4358988029835,-3462.9197743290392,-3466.6569938250773,-3472.334010581256,2159,16404.0,14876.0,14500.0,-6732.0,9432.0,-17208.0,-4072.0,-864.0,-2128.0,-484.0,1188.0,1827.0,1067.0,3602.0,475.0,188.0,-152.0,-246.0
1749632463.375042,6.896,-3457.4610659433683,-3451.4858109785096,-3453.3866424425414,-311.8077973941323,-3492.8330167034887,-3453.528517905297,-3467.976335716407,-3460.000836551289,2151,16308.0,15008.0,14456.0,-6712.0,9380.0,-17204.0,-4028.0,-820.0,-2028.0,-474.0,1180.0,1826.0,1063.0,3563.0,459.0,217.0,-148.0,-243.0
1749632463.425111,6.946,-3458.3078226665048,-3473.797725742784,-3449.3421926310293,-319.3132091984998,-3480.121175065181,-3462.8398444908676,-3467.316914551486,-3471.729541180079,2143,16376.0,14852.0,14408.0,-6772.0,9388.0,-17228.0,-4028.0,-816.0,-2008.0,-492.0,1172.0,1839.0,1097.0,3561.0,477.0,203.0,-141.0,-242.0
1749632463.47513,6.996,-3457.3181913576354,-3464.3090548287696,-3452.9400344717546,-311.2397959816213,-3492.5137969122884,-3452.8096489232357,-3467.5961694236003,-3458.378760397882,2154,16448.0,14864.0,14392.0,-6712.0,9392.0,-17248.0,-4192.0,-792.0,-2080.0,-466.0,1184.0,1821.0,1101.0,3576.0,471.0,200.0,-148.0,-249.0
1749632463.525125,7.046,-3458.311319596925,-3465.197275155458,-3449.2462768252226,-320.4781865898593,-3479.716530259434,-3462.9607383711023,-3466.816353939933,-3472.278059694536,2149,16352.0,14824.0,14592.0,-6700.0,9372.0,-17200.0,-3976.0,-768.0,-1996.0,-485.0,1181.0,1830.0,1067.0,3558.0,479.0,195.0,-139.0,-251.0
1749632463.5750458,7.096,-3458.9067968913077,-3473.035394911217,-3454.2938461057956,-315.84475378331587,-3487.837901379216,-3454.9292883192647,-3467.5147409009624,-3462.5436045281417,2153,16432.0,14916.0,14484.0,-6544.0,9348.0,-17176.0,-4016.0,-900.0,-2000.0,-490.0,1204.0,1781.0,1056.0,3600.0,449.0,229.0,-149.0,-229.0
1749632463.625097,7.146,-3457.6394093947897,-3465.6988348899886,-3449.3217106099974,-319.01097449791126,-3479.1939889423834,-3462.1769263955266,-3468.004311159767,-3471.5506981671692,2160,16352.0,14896.0,14564.0,-6664.0,9380.0,-17188.0,-4176.0,-836.0,-2052.0,-478.0,1181.0,1865.0,1082.0,3587.0,479.0,198.0,-172.0,-234.0
1749632463.6750531,7.196,-3458.680995098471,-3464.769150959748,-3454.143977659223,-315.1353764695378,-3488.7271208288817,-3454.960760693045,-3467.42082334111,-3462.6854799908974,2160,16348.0,14800.0,14556.0,-6584.0,9356.0,-17180.0,-4024.0,-892.0,-2160.0,-479.0,1181.0,1825.0,1075.0,3564.0,489.0,214.0,-139.0,-233.0
1749632463.725055,7.246,-3457.698357650442,-3483.214459802444,-3449.1543575113246,-318.87709201897286,-3478.609502000749,-3462.268845709425,-3467.4118312343157,-3470.848314714231,2143,16444.0,14868.0,14420.0,-6668.0,9324.0,-17260.0,-4148.0,-768.0,-2084.0,-461.0,1187.0,1820.0,1064.0,3609.0,469.0,216.0,-149.0,-238.0
1749632463.7750468,7.296,-3458.1954213315753,-3454.697491788565,-3453.8637236641316,-314.9989961831565,-3488.9624142900007,-3454.1135044084194,-3467.5557049430254,-3461.864700465167,2156,16476.0,14860.0,14404.0,-6692.0,9388.0,-17180.0,-4024.0,-952.0,-1984.0,-490.0,1162.0,1783.0,1096.0,3572.0,451.0,217.0,-144.0,-257.0
1749632463.825064,7.346,-3458.118988423823,-3475.1880053654913,-3449.2417807718257,-320.1045145964044,-3478.620492353498,-3462.5391084747444,-3466.5700701260653,-3471.633625374272,2143,16420.0,14816.0,14480.0,-6716.0,9348.0,-17224.0,-4280.0,-896.0,-2064.0,-480.0,1171.0,1839.0,1093.0,3557.0,455.0,194.0,-163.0,-253.0
1749632463.875051,7.396,-3457.7258335323136,-3472.834571192809,-3453.725345131796,-314.38503511369646,-3488.8045528596103,-3453.581471423086,-3467.207510585488,-3460.1432115755333,2159,16388.0,14892.0,14604.0,-6784.0,9404.0,-17276.0,-4188.0,-772.0,-1996.0,-488.0,1184.0,1806.0,1092.0,3591.0,466.0,207.0,-124.0,-244.0
1749632463.9250472,7.446,-3458.1764379950096,-3466.5351008218645,-3449.381158427138,-321.368405162502,-3478.6100015622383,-3462.745926931015,-3466.461665283044,-3471.8244578629087,2155,16356.0,14808.0,14496.0,-6644.0,9420.0,-17232.0,-4152.0,-964.0,-2004.0,-462.0,1157.0,1837.0,1067.0,3616.0,461.0,206.0,-119.0,-248.0
1749632463.975054,7.496,-3458.035561655231,-3471.6381214276694,-3453.830253044397,-314.00886531279866,-3489.6188380859894,-3453.3986319182673,-3466.9887026534916,-3461.1328428844026,2161,16384.0,14820.0,14544.0,-6672.0,9380.0,-17184.0,-4056.0,-840.0,-1988.0,-471.0,1184.0,1823.0,1066.0,3560.0,473.0,197.0,-158.0,-251.0
1749632464.025053,7.546,-3457.7023541423505,-3465.9096498381673,-3449.384655357558,-321.0686682693563,-3478.042000149727,-3462.0240605800223,-3467.352383417175,-3471.437297709262,2146,16412.0,14860.0,14480.0,-6636.0,9444.0,-17208.0,-4132.0,-772.0,-2032.0,-470.0,1159.0,1813.0,1086.0,3548.0,465.0,211.0,-136.0,-228.0
1749632464.075058,7.596,-3457.936148919004,-3463.9059087074884,-3453.6898762661067,-314.010863558753,-3490.492071568021,-3453.4046266561304,-3466.9277561518857,-3461.087882350431,2149,16324.0,14908.0,14552.0,-6732.0,9428.0,-17296.0,-4180.0,-668.0,-2084.0,-506.0,1195.0,1823.0,1090.0,3557.0,478.0,210.0,-139.0,-251.0
1749632464.125088,7.646,-3456.4849227946906,-3477.7197829895954,-3448.736224545386,-314.4359903855312,-3483.6121107473505,-3459.113615347578,-3466.839333768408,-3468.274074363598,2159,16372.0,14896.0,14528.0,-6704.0,9420.0,-17336.0,-4212.0,-792.0,-2012.0,-466.0,1169.0,1821.0,1091.0,3581.0,483.0,209.0,-140.0,-256.0
1749632464.175091,7.696,-3457.3596549611875,-3452.2186676822507,-3453.2342761885257,-313.8779802027917,-3490.6569268592507,-3452.914556835837,-3466.9202627295567,-3460.1911694784367,2145,16464.0,14780.0,14500.0,-6588.0,9364.0,-17236.0,-4296.0,-740.0,-2084.0,-478.0,1149.0,1803.0,1091.0,3567.0,460.0,225.0,-124.0,-242.0
1749632464.2250361,7.746,-3456.4024951490755,-3469.57842941027,-3448.5344017040015,-315.41662958760617,-3482.983162833233,-3459.6986018507005,-3466.411709134187,-3469.1697881126147,2156,16312.0,14768.0,14448.0,-6764.0,9508.0,-17192.0,-4116.0,-836.0,-1920.0,-468.0,1206.0,1855.0,1114.0,3633.0,448.0,209.0,-139.0,-240.0
1749632464.2750652,7.796,-3457.000470250901,-3468.6287630204874,-3453.036949400538,-312.9907589990805,-3490.472089108478,-3452.1692110948816,-3466.5326030144215,-3458.7274543169083,2153,16296.0,14916.0,14544.0,-6696.0,9476.0,-17208.0,-4084.0,-904.0,-2024.0,-471.0,1182.0,1790.0,1118.0,3624.0,459.0,210.0,-131.0,-257.0
1749632464.3250618,7.846,-3456.5533627186255,-3458.8983043460016,-3448.250151217002,-316.5426411828567,-3482.450130724923,-3460.0572869994985,-3466.1894042717704,-3469.5124872937786,2156,16428.0,14908.0,14332.0,-6744.0,9396.0,-17272.0,-4228.0,-916.0,-2120.0,-489.0,1172.0,1821.0,1081.0,3597.0,502.0,219.0,-160.0,-247.0
1749632464.37506,7.896,-3457.0059654272754,-3451.1780811015465,-3453.1343638908106,-313.3179717740979,-3491.069065087326,-3452.5283958051673,-3466.7029534820263,-3459.7775325658954,2155,16416.0,14852.0,14412.0,-6760.0,9384.0,-17336.0,-4092.0,-884.0,-1964.0,-463.0,1186.0,1824.0,1106.0,3563.0,473.0,194.0,-140.0,-237.0
1749632464.425051,7.946,-3456.414484624801,-3469.8611812128042,-3448.24715384807,-316.2284170065423,-3481.7192722671357,-3460.0113273425495,-3466.4336898396837,-3469.193267502578,2154,16376.0,14900.0,14484.0,-6716.0,9440.0,-17284.0,-4028.0,-812.0,-2144.0,-464.0,1180.0,1816.0,1085.0,3572.0,462.0,204.0,-144.0,-249.0
1749632464.475073,7.996,-3456.56585175584,-3466.7958719189014,-3452.7152318018952,-312.0460882241831,-3490.7903097767007,-3451.8534882341014,-3466.400219219949,-3458.122485354243,2160,16532.0,14904.0,14404.0,-6664.0,9436.0,-17192.0,-4072.0,-748.0,-2096.0,-474.0,1178.0,1800.0,1081.0,3553.0,453.0,213.0,-123.0,-236.0
1749632464.525053,8.046,-3456.389006988884,-3460.2506172955773,-3448.0423336377544,-317.14960839147665,-3481.2776599112344,-3460.4854111952077,-3466.3892288672005,-3469.752776369783,2150,16444.0,14920.0,14444.0,-6700.0,9460.0,-17200.0,-4120.0,-712.0,-2260.0,-474.0,1183.0,1816.0,1088.0,3640.0,487.0,211.0,-145.0,-242.0
1749632464.575072,8.096,-3456.8955623383,-3469.8292092775355,-3452.825135329382,-311.5455276126298,-3491.3048581099342,-3451.925924649945,-3466.6050394302656,-3459.1091192941813,2161,16348.0,14840.0,14420.0,-6740.0,9488.0,-17232.0,-4020.0,-952.0,-2008.0,-461.0,1155.0,1825.0,1054.0,3595.0,483.0,209.0,-147.0,-243.0
1749632464.625046,8.146,-3456.2256503821195,-3464.0357946945187,-3447.8300200051094,-316.39277273628386,-3480.167634283618,-3459.8654553878846,-3466.275328847805,-3469.2941789232705,2154,16356.0,14896.0,14464.0,-6684.0,9412.0,-17232.0,-3940.0,-848.0,-2072.0,-476.0,1152.0,1807.0,1090.0,3591.0,460.0,223.0,-136.0,-262.0
1749632464.6750898,8.196,-3456.6332925567976,-3462.2753400087763,-3452.536388788985,-311.2288056288726,-3491.7784424011043,-3452.163715918507,-3466.5990446924025,-3459.106121925249,2152,16400.0,14876.0,14480.0,-6624.0,9472.0,-17212.0,-3932.0,-728.0,-1980.0,-461.0,1169.0,1824.0,1087.0,3560.0,469.0,230.0,-124.0,-241.0
1749632464.725044,8.246,-3456.2806021458628,-3479.841420631578,-3447.788556401558,-316.23241349845097,-3479.623611822559,-3460.3939914427983,-3466.6285188202287,-3468.9909450997047,2155,16368.0,14892.0,14504.0,-6764.0,9448.0,-17200.0,-4108.0,-720.0,-2104.0,-468.0,1162.0,1815.0,1067.0,3578.0,487.0,182.0,-151.0,-228.0
1749632464.7750652,8.296,-3456.2126617834165,-3449.2033145372047,-3452.1537246887356,-311.1763516725721,-3491.6685388736173,-3451.8320070900927,-3466.304303414143,-3458.677498168051,2148,16312.0,14904.0,14456.0,-6680.0,9380.0,-17224.0,-4100.0,-832.0,-2056.0,-473.0,1194.0,1823.0,1051.0,3593.0,480.0,194.0,-134.0,-220.0
1749632464.8250592,8.346,-3456.3780166361353,-3471.904387701081,-3447.6846476119335,-317.43186063252216,-3479.3873192384626,-3460.945507326186,-3465.385609836651,-3469.901146131891,2159,16360.0,14852.0,14480.0,-6712.0,9420.0,-17132.0,-4164.0,-1032.0,-2036.0,-496.0,1194.0,1803.0,1098.0,3605.0,459.0,196.0,-156.0,-248.0
1749632464.875065,8.396,-3455.784537587707,-3463.646136733429,-3451.7590711127605,-310.60785069857246,-3491.0091177086974,-3451.283988137124,-3465.9606051100027,-3457.182310632743,2156,16472.0,14876.0,14528.0,-6712.0,9376.0,-17232.0,-3928.0,-892.0,-2036.0,-503.0,1183.0,1826.0,1087.0,3630.0,473.0,199.0,-136.0,-245.0
1749632464.92505,8.446,-3456.365028037432,-3462.8333501915154,-3447.620703741396,-318.7162332196514,-3479.010649876076,-3461.1623170122284,-3465.521490561544,-3470.5295944845193,2160,16472.0,14864.0,14472.0,-6672.0,9532.0,-17248.0,-4100.0,-888.0,-2084.0,-474.0,1202.0,1837.0,1081.0,3648.0,479.0,193.0,-143.0,-261.0
1749632464.9741461,8.495,-3455.8644674258794,-3449.736346645516,-3451.641174601457,-310.73224150922795,-3491.707005108238,-3451.7031202260396,-3466.3462665791826,-3458.4696805888034,2160,16340.0,14900.0,14440.0,-6648.0,9496.0,-17232.0,-4148.0,-708.0,-1988.0,-490.0,1196.0,1806.0,1075.0,3533.0,475.0,203.0,-119.0,-241.0
1749632465.0250618,8.546,-3456.481925425759,-3472.232599599075,-3447.622202425862,-318.2151730466095,-3478.534567777463,-3461.2072775462,-3465.159308482326,-3469.9720838632684,2160,16420.0,14932.0,14500.0,-6688.0,9488.0,-17208.0,-4272.0,-908.0,-1908.0,-477.0,1206.0,1817.0,1076.0,3630.0,462.0,211.0,-142.0,-225.0
1749632465.075061,8.596,-3456.75168862959,-3475.5147185790206,-3452.4484659669956,-315.963649417597,-3485.0688320480385,-3453.420612623764,-3466.362252546817,-3460.378005475164,2150,16344.0,14932.0,14392.0,-6684.0,9404.0,-17192.0,-4156.0,-604.0,-2020.0,-484.0,1168.0,1844.0,1126.0,3574.0,470.0,210.0,-143.0,-245.0
1749632465.125067,8.646,-3456.450952613467,-3463.3498967707037,-3447.599722158876,-319.4201153570551,-3478.091956298584,-3461.349652570445,-3465.1218413706824,-3470.41719314959,2162,16420.0,14904.0,14500.0,-6540.0,9476.0,-17168.0,-4172.0,-976.0,-2012.0,-459.0,1177.0,1834.0,1105.0,3586.0,457.0,211.0,-145.0,-253.0
1749632465.175041,8.696,-3456.9560092784177,-3453.8981934068433,-3452.371033936266,-316.0600647848922,-3486.150882232294,-3453.534013081671,-3466.050526177946,-3461.3336666028104,2154,16356.0,14876.0,14448.0,-6696.0,9540.0,-17100.0,-4144.0,-892.0,-2032.0,-488.0,1192.0,1816.0,1091.0,3539.0,473.0,210.0,-160.0,-261.0
1749632465.2250738,8.746,-3456.3380517170494,-3472.6067711540186,-3447.495813369252,-319.1068903037179,-3477.791220282462,-3461.076891997682,-3464.7846373658936,-3469.878166303416,2161,16404.0,14884.0,14448.0,-6676.0,9500.0,-17160.0,-4160.0,-756.0,-2024.0,-480.0,1181.0,1830.0,1101.0,3584.0,467.0,203.0,-150.0,-254.0
1749632465.275079,8.796,-3456.452950859422,-3473.1328094014893,-3452.239649264771,-314.85212510551514,-3486.25079453001,-3452.545380895779,-3465.8781774643867,-3459.6411522795142,2150,16340.0,14908.0,14388.0,-6660.0,9432.0,-17224.0,-4020.0,-792.0,-2088.0,-473.0,1171.0,1811.0,1068.0,3577.0,458.0,214.0,-124.0,-245.0
1749632465.325058,8.846,-3456.4689368270556,-3464.025303903258,-3447.4678379258917,-320.1584672371706,-3477.377083808432,-3461.3596438002164,-3465.2067668237405,-3470.4871317579905,2147,16436.0,14868.0,14528.0,-6640.0,9428.0,-17224.0,-4064.0,-892.0,-1880.0,-457.0,1189.0,1815.0,1088.0,3603.0,467.0,205.0,-128.0,-235.0
1749632465.37506,8.896,-3456.794151356119,-3470.845816906788,-3452.3810251660375,-314.5354031217579,-3486.9511797369933,-3452.760192335867,-3465.5924282929213,-3460.413474340853,2161,16376.0,14916.0,14456.0,-6712.0,9428.0,-17280.0,-4188.0,-800.0,-1964.0,-474.0,1167.0,1853.0,1062.0,3598.0,471.0,196.0,-140.0,-265.0
1749632465.425055,8.946,-3455.98336306016,-3464.4574245908766,-3447.5682497850953,-319.7043658440549,-3476.9384688214623,-3460.4609326822674,-3466.3232867507086,-3469.600909677256,2149,16512.0,14900.0,14520.0,-6620.0,9468.0,-17160.0,-4156.0,-804.0,-2028.0,-476.0,1135.0,1791.0,1065.0,3569.0,462.0,214.0,-155.0,-255.0
1749632465.475057,8.996,-3456.6342916797744,-3462.978223023203,-3452.298097958934,-314.57586760233255,-3487.7419855734092,-3452.500919923296,-3465.583436186127,-3460.3445348554296,2146,16480.0,14872.0,14488.0,-6716.0,9388.0,-17212.0,-4144.0,-840.0,-2072.0,-490.0,1183.0,1827.0,1076.0,3564.0,453.0,191.0,-148.0,-253.0
1749632465.525125,9.046,-3456.0982622025326,-3482.2168355097574,-3447.5887318061273,-319.59346319359105,-3476.6047617470936,-3460.6068046369323,-3465.499010294558,-3468.852067005881,2157,16356.0,14864.0,14584.0,-6748.0,9384.0,-17248.0,-4032.0,-752.0,-2036.0,-484.0,1185.0,1796.0,1081.0,3578.0,475.0,192.0,-137.0,-228.0
1749632465.575051,9.096,-3455.0012251736193,-3447.193079107175,-3449.767819019296,-309.90746549158877,-3490.56250973791,-3451.777554887838,-3465.7492906003345,-3457.5220124449747,2151,16352.0,14864.0,14484.0,-6636.0,9464.0,-17296.0,-4156.0,-856.0,-2016.0,-495.0,1187.0,1804.0,1055.0,3573.0,475.0,192.0,-144.0,-238.0
1749632465.625003,9.146,-3456.578840354543,-3474.0190314822235,-3447.7630787656403,-320.38926464489276,-3476.610756484956,-3461.155323151389,-3464.615286021267,-3469.6753443390544,2160,16384.0,14996.0,14420.0,-6676.0,9452.0,-17124.0,-4128.0,-896.0,-2032.0,-491.0,1189.0,1826.0,1095.0,3573.0,454.0,211.0,-136.0,-247.0
1749632465.675066,9.196,-3455.6606463385397,-3469.5264750154583,-3451.8659772713154,-313.20607000065684,-3487.9103377950596,-3451.340938146822,-3465.3176694742046,-3457.840732674686,2146,16488.0,14948.0,14512.0,-6648.0,9508.0,-17256.0,-4128.0,-960.0,-2032.0,-489.0,1167.0,1805.0,1062.0,3565.0,475.0,227.0,-140.0,-234.0
1749632465.7250402,9.246,-3454.92379314289,-3455.926912611951,-3447.302483073173,-314.90407950032704,-3482.535555739469,-3458.186429224781,-3465.372621237948,-3467.723058041699,2155,16428.0,14740.0,14444.0,-6692.0,9444.0,-17172.0,-4092.0,-928.0,-2076.0,-473.0,1195.0,1841.0,1088.0,3636.0,467.0,208.0,-139.0,-251.0
1749632465.775063,9.296,-3455.9284112964165,-3450.807406477023,-3451.9334180722735,-313.17809455729656,-3489.056331849853,-3451.4238653539255,-3465.4715344126857,-3458.810881085501,2143,16472.0,14936.0,14508.0,-6712.0,9508.0,-17316.0,-4056.0,-864.0,-2092.0,-470.0,1204.0,1822.0,1071.0,3600.0,479.0,203.0,-127.0,-238.0
1749632465.825036,9.346,-3454.8848273467815,-3467.769517260136,-3447.0512036444193,-314.4304952091569,-3481.685302085912,-3458.290338014405,-3465.048405831862,-3467.0916123201387,2159,16288.0,14844.0,14488.0,-6720.0,9468.0,-17208.0,-4064.0,-756.0,-2060.0,-489.0,1209.0,1809.0,1059.0,3679.0,483.0,204.0,-124.0,-246.0
1749632465.875015,9.396,-3455.6321713336906,-3467.5117435320312,-3451.7495794444776,-311.8497605591727,-3488.875990152477,-3450.7764336647315,-3465.196276032481,-3457.2662369628238,2148,16432.0,14964.0,14488.0,-6604.0,9440.0,-17160.0,-4108.0,-648.0,-2200.0,-490.0,1194.0,1792.0,1092.0,3593.0,482.0,209.0,-123.0,-243.0
1749632465.925046,9.446,-3455.004722104039,-3457.702853703839,-3446.982763720484,-315.4126330956975,-3481.184741474359,-3458.7719152893915,-3465.0029457364017,-3467.9813313312925,2162,16420.0,14816.0,14464.0,-6616.0,9448.0,-17240.0,-4124.0,-968.0,-1976.0,-459.0,1167.0,1773.0,1085.0,3578.0,478.0,191.0,-140.0,-242.0
1749632465.9750662,9.496,-3455.6711371298,-3449.9646462457954,-3451.7560737438293,-312.32384441183143,-3489.9210727865784,-3451.067678012571,-3465.4855221343664,-3458.2808463461215,2146,16380.0,14892.0,14552.0,-6708.0,9456.0,-17260.0,-4112.0,-828.0,-2124.0,-472.0,1193.0,1796.0,1070.0,3628.0,483.0,196.0,-156.0,-252.0
1749632466.025046,9.546,-3454.9507694632734,-3468.8465718295065,-3446.8333948353998,-315.3067260601194,-3480.441893540846,-3458.781906519164,-3464.637766288253,-3467.5367216064597,2156,16352.0,14964.0,14524.0,-6700.0,9508.0,-17164.0,-4184.0,-816.0,-2040.0,-467.0,1211.0,1825.0,1100.0,3560.0,487.0,203.0,-148.0,-233.0
1749632466.075051,9.596,-3455.2105414373327,-3465.461043621426,-3451.262506993116,-311.3022411676933,-3489.5763753594606,-3450.33831823925,-3465.029922056785,-3456.9824860373124,2144,16320.0,14876.0,14428.0,-6664.0,9368.0,-17252.0,-4148.0,-808.0,-2120.0,-466.0,1189.0,1800.0,1092.0,3646.0,451.0,208.0,-126.0,-231.0
1749632466.125029,9.646,-3454.8853269082697,-3459.3354206485055,-3446.808416760971,-316.3657964159008,-3480.0352504891457,-3459.250495195448,-3464.9095277380384,-3468.508868263229,2159,16352.0,14916.0,14548.0,-6688.0,9428.0,-17268.0,-4180.0,-872.0,-2180.0,-446.0,1174.0,1800.0,1095.0,3572.0,472.0,211.0,-147.0,-234.0
1749632466.17505,9.696,-3455.3763958515397,-3449.4091338704984,-3451.4238653539255,-311.7238710640515,-3490.475086477409,-3450.896827983478,-3465.3131734208073,-3457.8946853154525,2148,16396.0,14852.0,14468.0,-6636.0,9456.0,-17256.0,-4100.0,-908.0,-1968.0,-470.0,1177.0,1837.0,1077.0,3591.0,472.0,203.0,-133.0,-249.0
1749632466.2250319,9.746,-3455.0067203499934,-3469.2766942711705,-3446.637566731878,-316.40975782689543,-3479.4008073986543,-3459.363895653354,-3465.2737080632096,-3468.385976137039,2162,16352.0,14956.0,14504.0,-6740.0,9460.0,-17304.0,-4236.0,-956.0,-2056.0,-477.0,1150.0,1821.0,1100.0,3598.0,457.0,193.0,-141.0,-244.0
1749632466.274975,9.796,-3454.875835239987,-3464.246110081209,-3451.021718355622,-310.88111083282365,-3489.9560420907787,-3450.2184234819915,-3464.899536508266,-3456.527885082708,2144,16412.0,14896.0,14424.0,-6660.0,9448.0,-17224.0,-4172.0,-920.0,-2056.0,-469.0,1150.0,1835.0,1055.0,3572.0,463.0,212.0,-129.0,-244.0
1749632466.3245592,9.845,-3455.001724735108,-3460.771160366674,-3446.5851127755773,-317.5502567053147,-3479.0371266349703,-3459.7610470367727,-3464.66324392417,-3468.8640564816064,2157,16324.0,14916.0,14444.0,-6672.0,9456.0,-17204.0,-4136.0,-808.0,-2080.0,-476.0,1166.0,1813.0,1067.0,3555.0,483.0,191.0,-130.0,-261.0
1749632466.375048,9.896,-3454.9652567464423,-3449.3626746520613,-3450.878843769889,-311.23679861268977,-3490.637943522685,-3450.6040849511724,-3465.3661269385966,-3457.2662369628238,2151,16432.0,14828.0,14432.0,-6688.0,9468.0,-17256.0,-4132.0,-776.0,-1904.0,-468.0,1189.0,1833.0,1077.0,3594.0,469.0,201.0,-130.0,-243.0
1749632466.425049,9.946,-3455.046185707591,-3470.071996160984,-3446.4232548532786,-317.43285975549935,-3478.150404992748,-3459.6296623652775,-3464.699212351348,-3468.1252050400026,2161,16376.0,14916.0,14464.0,-6748.0,9400.0,-17208.0,-4156.0,-756.0,-1976.0,-489.0,1143.0,1830.0,1070.0,3604.0,476.0,204.0,-160.0,-251.0
1749632466.4750452,9.996,-3455.7625568822095,-3476.26905642677,-3450.8603599948124,-316.4632109061731,-3482.7403759497856,-3453.100893271076,-3465.7422967394946,-3460.024815502741,2146,16352.0,14992.0,14540.0,-6628.0,9528.0,-17192.0,-4080.0,-756.0,-2060.0,-466.0,1184.0,1825.0,1086.0,3598.0,465.0,209.0,-139.0,-237.0
1749632466.525058,10.046,-3455.0701646590433,-3461.5319925137746,-3446.4352443290045,-318.5044191484951,-3477.830186078571,-3459.9923440059833,-3464.471412312557,-3469.125327140132,2155,16508.0,14812.0,14388.0,-6692.0,9448.0,-17196.0,-4256.0,-756.0,-2016.0,-478.0,1189.0,1831.0,1086.0,3571.0,460.0,231.0,-134.0,-251.0
1749632466.575047,10.096,-3456.2741078465115,-3471.243967413183,-3451.407379824803,-316.35380694017493,-3483.560156352539,-3453.072418266227,-3464.8895452784946,-3460.7576722064823,2143,16512.0,14848.0,14468.0,-6716.0,9440.0,-17240.0,-4132.0,-832.0,-1908.0,-475.0,1198.0,1816.0,1053.0,3601.0,475.0,201.0,-160.0,-234.0
1749632466.625036,10.146,-3454.8583505878864,-3463.5377318904084,-3446.34582282255,-318.25913445760426,-3477.108319727578,-3459.21102983785,-3465.440062038906,-3468.2915590156986,2159,16452.0,14848.0,14428.0,-6604.0,9376.0,-17268.0,-4092.0,-880.0,-1936.0,-477.0,1181.0,1822.0,1105.0,3623.0,475.0,211.0,-152.0,-244.0
1749632466.6750479,10.196,-3456.3615311070116,-3463.6656196314834,-3451.2709995384216,-316.6240697054946,-3484.5782626662567,-3453.054434052638,-3464.79662684162,-3460.8940524928635,2149,16372.0,14884.0,14432.0,-6720.0,9400.0,-17200.0,-4284.0,-600.0,-2108.0,-481.0,1183.0,1797.0,1066.0,3635.0,466.0,228.0,-134.0,-238.0
1749632466.725046,10.246,-3454.8808308548723,-3480.1096851509433,-3446.2449114018573,-318.3545507019223,-3476.7326494881686,-3459.6751224607374,-3464.2251284986887,-3467.7999905109396,2161,16316.0,14880.0,14496.0,-6680.0,9372.0,-17224.0,-4180.0,-800.0,-2044.0,-485.0,1204.0,1817.0,1114.0,3625.0,487.0,201.0,-142.0,-233.0
1749632466.7750359,10.296,-3455.6551511621656,-3453.719849955422,-3451.0766701193656,-316.08704110527526,-3485.0268688829983,-3452.234653649885,-3465.2132611230927,-3460.0977514800725,2145,16416.0,14892.0,14424.0,-6764.0,9404.0,-17236.0,-4280.0,-860.0,-2044.0,-480.0,1149.0,1833.0,1063.0,3612.0,496.0,188.0,-129.0,-242.0
1749632466.8250618,10.346,-3455.1450988823294,-3472.0457636023475,-3446.340327646175,-319.17882715807286,-3476.573788934802,-3460.002335235755,-3464.4619206442735,-3468.4399287778056,2157,16464.0,14936.0,14444.0,-6696.0,9372.0,-17232.0,-4144.0,-780.0,-2148.0,-465.0,1181.0,1809.0,1085.0,3603.0,475.0,209.0,-141.0,-251.0
1749632466.875048,10.396,-3455.3289375101253,-3472.4608991993546,-3450.8948297375237,-315.0604422462514,-3484.927456146772,-3451.499299138701,-3464.751666307648,-3458.3258068800933,2152,16412.0,14888.0,14440.0,-6720.0,9472.0,-17240.0,-4168.0,-848.0,-2140.0,-479.0,1175.0,1802.0,1074.0,3524.0,483.0,200.0,-142.0,-234.0
1749632466.925055,10.446,-3455.2435124955787,-3463.0046997820973,-3446.3957789714073,-320.13249003976466,-3476.3439906500566,-3460.1007488490045,-3463.978844684821,-3469.050892478334,2161,16476.0,14828.0,14472.0,-6708.0,9440.0,-17252.0,-4264.0,-796.0,-2072.0,-456.0,1188.0,1809.0,1105.0,3513.0,470.0,212.0,-149.0,-237.0
1749632466.975043,10.496,-3455.750067844995,-3469.7397877710805,-3451.1660916258206,-314.33807633377035,-3485.8206720883454,-3451.536266688856,-3464.4149618643473,-3458.9897240984105,2145,16348.0,14928.0,14476.0,-6812.0,9360.0,-17212.0,-4120.0,-752.0,-1996.0,-476.0,1188.0,1817.0,1120.0,3579.0,466.0,202.0,-149.0,-251.0
1749632467.024956,10.546,-3454.9033111218587,-3463.4912726719704,-3446.4807044244653,-319.18282364998146,-3475.82694450938,-3459.4138518022123,-3464.6272754969923,-3468.725677949271,2155,16436.0,14864.0,14464.0,-6668.0,9400.0,-17188.0,-4116.0,-1080.0,-1984.0,-489.0,1188.0,1819.0,1109.0,3622.0,470.0,187.0,-134.0,-234.0
1749632467.074857,10.595,-3455.6346691411336,-3462.3302917725196,-3451.2065561063955,-313.8215297545826,-3486.750356018586,-3451.445846059423,-3464.3949794048044,-3459.3154381889626,2143,16384.0,14868.0,14476.0,-6728.0,9408.0,-17244.0,-4264.0,-792.0,-2116.0,-454.0,1168.0,1830.0,1081.0,3557.0,450.0,222.0,-145.0,-265.0
1749632467.1250298,10.646,-3453.9336622725323,-3474.1464196618103,-3446.6930180571103,-312.43474706229534,-3482.66843909543,-3455.728087139498,-3464.338528956596,-3464.64925620249,2157,16376.0,14816.0,14532.0,-6736.0,9404.0,-17224.0,-3980.0,-772.0,-1996.0,-486.0,1172.0,1822.0,1100.0,3574.0,466.0,207.0,-149.0,-252.0
1749632467.175062,10.696,-3455.0851515037,-3450.95927316955,-3450.8398779737804,-313.8714859034402,-3487.1005486220774,-3450.917809565998,-3464.3799925601475,-3458.4052371567773,2149,16344.0,14936.0,14440.0,-6712.0,9444.0,-17260.0,-4080.0,-880.0,-2056.0,-490.0,1196.0,1814.0,1089.0,3585.0,504.0,207.0,-147.0,-237.0
1749632467.225031,10.746,-3453.8642232256198,-3466.048527931992,-3446.450231173662,-313.6192073517093,-3482.2338206003687,-3456.4854223561792,-3464.2066447236116,-3465.3591330777567,2161,16424.0,14800.0,14536.0,-6644.0,9372.0,-17172.0,-4124.0,-744.0,-1912.0,-462.0,1215.0,1815.0,1112.0,3552.0,482.0,201.0,-149.0,-222.0
1749632467.275027,10.796,-3454.7804189956687,-3468.427439740591,-3450.932296849167,-312.8079194942617,-3486.721381452248,-3450.0695541583964,-3464.177670157274,-3457.03244218617,2143,16380.0,14888.0,14584.0,-6672.0,9388.0,-17252.0,-4096.0,-828.0,-2044.0,-452.0,1166.0,1825.0,1095.0,3613.0,488.0,214.0,-158.0,-242.0
1749632467.3250408,10.846,-3455.577219569948,-3464.2086429695655,-3446.706006655813,-320.89382174835464,-3475.421800142145,-3459.8644562649074,-3463.0671449681695,-3468.96446834081,2156,16392.0,14836.0,14428.0,-6648.0,9464.0,-17196.0,-4144.0,-884.0,-1976.0,-466.0,1166.0,1834.0,1099.0,3591.0,467.0,201.0,-133.0,-234.0
1749632467.3750458,10.896,-3454.760436536126,-3449.4356106293926,-3450.690509088696,-313.2430375508115,-3487.6485675750455,-3450.3463112230675,-3464.2526043805606,-3457.8801980322837,2145,16348.0,14860.0,14520.0,-6696.0,9444.0,-17224.0,-4196.0,-848.0,-2004.0,-479.0,1175.0,1813.0,1099.0,3571.0,478.0,191.0,-136.0,-244.0
1749632467.424984,10.946,-3455.474309903301,-3472.4554040229805,-3446.8074176379937,-320.6245581060121,-3475.2819229253437,-3459.5207579607672,-3463.271965178486,-3468.2855642778354,2160,16444.0,14808.0,14468.0,-6632.0,9388.0,-17292.0,-4228.0,-1008.0,-1924.0,-469.0,1185.0,1811.0,1094.0,3578.0,472.0,215.0,-152.0,-238.0
1749632467.475052,10.996,-3454.504661053975,-3466.4891411649155,-3450.6475468006784,-312.38978652832344,-3487.7205044294005,-3449.7987918315876,-3464.0203082883727,-3456.1642043190245,2150,16336.0,14904.0,14424.0,-6732.0,9380.0,-17252.0,-4132.0,-824.0,-2020.0,-478.0,1160.0,1811.0,1071.0,3585.0,475.0,205.0,-124.0,-232.0
1749632467.5250208,11.046,-3453.805774531457,-3455.977368322297,-3445.9122034504658,-315.68988972185724,-3480.3819461622174,-3457.4480773446653,-3464.278581577966,-3466.716941203706,2161,16472.0,14980.0,14564.0,-6652.0,9352.0,-17304.0,-4168.0,-800.0,-1984.0,-494.0,1189.0,1821.0,1073.0,3556.0,451.0,222.0,-152.0,-242.0
1749632467.5750332,11.096,-3454.427229023245,-3448.8311412282155,-3450.574111261858,-312.89584231625105,-3488.5123093887937,-3450.0635594205332,-3464.2251284986887,-3457.1228628156023,2145,16452.0,14852.0,14428.0,-6672.0,9456.0,-17196.0,-4084.0,-860.0,-1984.0,-485.0,1176.0,1824.0,1115.0,3552.0,475.0,208.0,-145.0,-237.0
1749632467.6250272,11.146,-3453.8142670767625,-3467.162550051516,-3445.7368573679755,-315.48357082707537,-3479.626109630002,-3457.540496220052,-3464.1861627025796,-3466.568071880111,2160,16388.0,14968.0,14428.0,-6696.0,9472.0,-17180.0,-4240.0,-868.0,-1944.0,-467.0,1203.0,1819.0,1102.0,3600.0,472.0,222.0,-133.0,-238.0
1749632467.675016,11.196,-3454.081032911662,-3464.9654786247584,-3450.2049353218,-311.8867281093273,-3488.3134839163404,-3449.3701680743898,-3463.888923616877,-3455.831496367633,2152,16404.0,14852.0,14624.0,-6616.0,9400.0,-17252.0,-4228.0,-748.0,-2072.0,-495.0,1193.0,1832.0,1087.0,3562.0,460.0,193.0,-139.0,-241.0
1749632467.72486,11.245,-3453.758316190042,-3457.473554980583,-3445.6074709424342,-316.5511337281625,-3479.113059981234,-3458.0275686714135,-3463.6561279632006,-3467.361875085458,2161,16392.0,14884.0,14524.0,-6644.0,9424.0,-17260.0,-4152.0,-960.0,-1892.0,-483.0,1185.0,1817.0,1078.0,3610.0,455.0,226.0,-144.0,-236.0
1749632467.774812,11.295,-3454.163460557277,-3448.2591433237967,-3450.155478734431,-311.8797342484873,-3489.030354652447,-3449.657915491809,-3464.1891600715107,-3456.774168896576,2145,16396.0,14888.0,14548.0,-6716.0,9424.0,-17136.0,-4152.0,-728.0,-2088.0,-454.0,1196.0,1836.0,1077.0,3572.0,457.0,195.0,-143.0,-241.0
1749632467.8250408,11.346,-3453.830253044397,-3468.492382734106,-3445.526541981285,-316.10652400332975,-3478.446145393985,-3457.973116469159,-3463.3688801072694,-3466.733926294318,2155,16488.0,14952.0,14516.0,-6664.0,9448.0,-17216.0,-4004.0,-764.0,-1960.0,-494.0,1177.0,1843.0,1101.0,3609.0,465.0,212.0,-126.0,-258.0
1749632467.8750432,11.396,-3453.7283425007276,-3463.3074340441744,-3450.0121045872097,-310.7831967810627,-3488.547778254482,-3449.055943898075,-3463.6666187544606,-3455.3039594356965,2143,16528.0,14872.0,14504.0,-6648.0,9416.0,-17184.0,-4148.0,-792.0,-1888.0,-478.0,1187.0,1816.0,1106.0,3569.0,456.0,213.0,-154.0,-248.0
1749632467.925031,11.446,-3453.821260937603,-3459.233010543348,-3445.212817366459,-317.3998886972533,-3477.8726488050997,-3458.4671827813604,-3462.998205482746,-3467.734547955936,2157,16364.0,14932.0,14460.0,-6668.0,9312.0,-17228.0,-4232.0,-632.0,-2016.0,-487.0,1196.0,1810.0,1100.0,3578.0,447.0,201.0,-152.0,-252.0
1749632467.975036,11.496,-3455.0411900927056,-3454.546624219015,-3449.7148655015067,-317.56224618104056,-3480.8590273838076,-3452.7736804960587,-3464.9340062509787,-3460.8680752954574,2149,16328.0,14852.0,14508.0,-6636.0,9468.0,-17188.0,-4028.0,-760.0,-2064.0,-488.0,1188.0,1824.0,1102.0,3568.0,442.0,199.0,-142.0,-241.0
1749632468.025024,11.546,-3453.871716647949,-3468.910515700044,-3445.2253064036736,-316.97026581707786,-3477.44102767897,-3458.3013283671535,-3463.060151107329,-3467.014180289409,2160,16508.0,14892.0,14484.0,-6640.0,9384.0,-17176.0,-4100.0,-808.0,-1928.0,-463.0,1180.0,1836.0,1090.0,3596.0,467.0,229.0,-146.0,-243.0
1749632468.0750358,11.596,-3454.635046602493,-3475.420301457679,-3449.6694054060467,-316.6700293624436,-3481.2042243724136,-3452.0932777486178,-3464.3729986993076,-3459.1815557100244,2145,16384.0,14864.0,14456.0,-6636.0,9464.0,-17240.0,-4200.0,-820.0,-2132.0,-458.0,1184.0,1820.0,1095.0,3656.0,474.0,207.0,-137.0,-236.0
1749632468.125046,11.646,-3453.9026894602407,-3459.965867247089,-3445.378671780666,-317.74208831692795,-3477.108319727578,-3458.747436776451,-3462.777898866284,-3467.959350625795,2154,16444.0,14868.0,14480.0,-6728.0,9424.0,-17252.0,-4092.0,-988.0,-2012.0,-466.0,1191.0,1805.0,1062.0,3591.0,453.0,215.0,-134.0,-224.0
1749632468.175026,11.696,-3455.2714879389387,-3470.401207181955,-3450.3233313945925,-316.0525713625635,-3482.0280012670755,-3452.2591321628247,-3463.699090251218,-3460.1796795641994,2152,16364.0,14940.0,14560.0,-6640.0,9524.0,-17208.0,-4212.0,-752.0,-2176.0,-463.0,1179.0,1815.0,1066.0,3570.0,462.0,198.0,-143.0,-238.0
1749632468.225031,11.746,-3453.711357410116,-3462.2438676349957,-3445.3516954602833,-317.46982730565395,-3476.187128342644,-3458.1159910548918,-3464.1606850666626,-3467.193522863808,2159,16404.0,14968.0,14516.0,-6712.0,9488.0,-17244.0,-4116.0,-840.0,-2052.0,-478.0,1190.0,1794.0,1098.0,3589.0,431.0,201.0,-139.0,-246.0
1749632468.274976,11.796,-3455.131111160649,-3462.8803089714415,-3450.2913594593238,-316.0975318965354,-3483.1435220710664,-3452.068299674189,-3463.6506327868265,-3459.825990030288,2148,16440.0,14924.0,14524.0,-6724.0,9420.0,-17236.0,-4124.0,-880.0,-1916.0,-455.0,1208.0,1817.0,1049.0,3589.0,475.0,198.0,-163.0,-220.0
1749632468.325025,11.846,-3453.7967824246625,-3478.733892811405,-3445.1533695493185,-317.25901235747483,-3475.8284431938464,-3458.314816527345,-3463.440317400136,-3466.779885951267,2154,16368.0,14860.0,14492.0,-6648.0,9428.0,-17256.0,-4104.0,-992.0,-2060.0,-482.0,1182.0,1828.0,1112.0,3559.0,462.0,226.0,-134.0,-249.0
1749632468.375038,11.896,-3454.545625096038,-3452.950025701526,-3449.9421659788095,-316.00960907454595,-3483.3708225483683,-3451.4423491290036,-3464.02480434177,-3459.2045355384985,2143,16436.0,14900.0,14400.0,-6760.0,9448.0,-17148.0,-4116.0,-836.0,-2000.0,-474.0,1201.0,1839.0,1067.0,3639.0,472.0,198.0,-145.0,-234.0
1749632468.4250271,11.946,-3453.988114474787,-3470.7518993469357,-3445.2223090347416,-318.44447176986597,-3475.593649294215,-3458.975236815242,-3463.149572613784,-3467.6076593378375,2158,16352.0,14952.0,14524.0,-6692.0,9348.0,-17172.0,-4092.0,-908.0,-2028.0,-476.0,1163.0,1786.0,1072.0,3579.0,456.0,211.0,-140.0,-249.0
1749632468.4750369,11.996,-3454.2448890799155,-3471.39933103613,-3449.916188781403,-315.37616510703145,-3483.5301826632244,-3450.7794310336626,-3463.908406514932,-3457.595447983795,2150,16408.0,14880.0,14424.0,-6704.0,9416.0,-17228.0,-3948.0,-696.0,-2064.0,-477.0,1195.0,1814.0,1088.0,3616.0,447.0,208.0,-158.0,-259.0
1749632468.525045,12.046,-3454.1539688889943,-3461.593938138358,-3445.2772607984853,-319.90319131650824,-3475.460266376766,-3459.0152017343285,-3462.5975571689073,-3468.2416028668404,2159,16388.0,15024.0,14492.0,-6604.0,9456.0,-17332.0,-4140.0,-916.0,-2052.0,-486.0,1180.0,1820.0,1057.0,3583.0,466.0,210.0,-129.0,-261.0
1749632468.575053,12.096,-3454.5496215879466,-3450.95577623913,-3450.0755488962586,-315.507549778527,-3484.575265297325,-3450.814400337863,-3463.791009565116,-3458.285342399519,2146,16412.0,14912.0,14480.0,-6676.0,9452.0,-17256.0,-4148.0,-924.0,-2048.0,-473.0,1176.0,1811.0,1107.0,3548.0,462.0,222.0,-144.0,-226.0
1749632468.6249769,12.146,-3454.19393380808,-3470.810348041099,-3445.363684936009,-319.6164430220655,-3475.249950990075,-3458.931774965736,-3462.0780132207888,-3467.3958452666816,2155,16280.0,14864.0,14484.0,-6672.0,9324.0,-17236.0,-4112.0,-1024.0,-2060.0,-457.0,1173.0,1845.0,1068.0,3565.0,466.0,204.0,-139.0,-251.0
1749632468.674956,12.196,-3453.9946087741387,-3470.4281835023385,-3449.916688342892,-314.3051052755243,-3484.5382977471704,-3449.8577400872396,-3463.591684531174,-3456.947516733112,2143,16444.0,14712.0,14476.0,-6652.0,9384.0,-17196.0,-4144.0,-916.0,-1984.0,-494.0,1170.0,1783.0,1072.0,3547.0,450.0,217.0,-129.0,-224.0
1749632468.7248871,12.245,-3452.664776091549,-3452.0987729249923,-3445.799802115536,-313.6951406979728,-3482.5915066261896,-3455.150594058704,-3463.386864320858,-3464.8605707121574,2159,16452.0,14844.0,14456.0,-6676.0,9356.0,-17264.0,-4180.0,-728.0,-1956.0,-468.0,1152.0,1795.0,1092.0,3563.0,458.0,199.0,-145.0,-221.0
1749632468.7750459,12.296,-3454.219911005486,-3449.869230001477,-3450.038581346104,-314.4729579356858,-3485.6438273213894,-3450.1185111842765,-3463.4393182771587,-3457.6833708057843,2148,16392.0,14924.0,14436.0,-6644.0,9488.0,-17228.0,-4208.0,-956.0,-2048.0,-484.0,1191.0,1827.0,1098.0,3613.0,462.0,205.0,-140.0,-228.0
1749632468.8238049,12.344,-3454.333311463393,-3471.4892521040742,-3445.3891625719266,-320.3108334911863,-3474.565551750726,-3458.9822306760825,-3462.6000549763507,-3467.0716298605957,2160,16400.0,14860.0,14460.0,-6772.0,9376.0,-17256.0,-4236.0,-924.0,-2044.0,-464.0,1179.0,1826.0,1074.0,3595.0,460.0,218.0,-134.0,-235.0
1749632468.875034,12.396,-3453.8637236641316,-3467.9303760594576,-3449.9596506309094,-313.59323015430334,-3485.464484746991,-3449.358678160152,-3463.277959916348,-3456.26411661674,2144,16404.0,14908.0,14388.0,-6740.0,9552.0,-17292.0,-4160.0,-940.0,-2156.0,-482.0,1187.0,1801.0,1088.0,3574.0,471.0,202.0,-143.0,-266.0
1749632468.925036,12.446,-3452.711235309987,-3452.9305428034713,-3445.4810818858246,-314.32858466548737,-3481.017388375686,-3455.782039780264,-3463.2824559697456,-3465.5090015243295,2156,16376.0,14836.0,14428.0,-6676.0,9508.0,-17240.0,-4056.0,-844.0,-1976.0,-484.0,1185.0,1818.0,1101.0,3581.0,466.0,194.0,-144.0,-250.0
1749632468.97504,12.496,-3453.95214604761,-3448.9120701893653,-3449.9211843962894,-313.7775683435879,-3486.6534410898016,-3449.808783061359,-3463.3523945781467,-3457.2462545032804,2152,16344.0,14728.0,14468.0,-6676.0,9440.0,-17188.0,-4252.0,-888.0,-1916.0,-483.0,1181.0,1804.0,1055.0,3582.0,468.0,208.0,-156.0,-266.0
1749632469.0249238,12.545,-3452.78017479541,-3465.010938720219,-3445.291748081654,-314.2671386023925,-3480.272042634731,-3455.889445500308,-3463.3059353597087,-3464.8246022849803,2158,16408.0,14776.0,14432.0,-6720.0,9504.0,-17184.0,-4212.0,-832.0,-2084.0,-483.0,1163.0,1802.0,1051.0,3595.0,460.0,190.0,-134.0,-240.0
1749632469.0748532,12.595,-3453.5115328146853,-3466.398220973995,-3449.6509216309687,-312.73498351692956,-3486.298752432913,-3448.972517129483,-3463.141080068479,-3455.5642309712443,2146,16452.0,14844.0,14532.0,-6572.0,9400.0,-17208.0,-4260.0,-816.0,-2120.0,-460.0,1190.0,1836.0,1077.0,3597.0,467.0,198.0,-158.0,-229.0
1749632469.125032,12.646,-3452.691252850443,-3454.832872951969,-3445.1778480622584,-315.2208014840843,-3479.694049992448,-3456.2396381037997,-3462.9852168840425,-3465.900657731373,2154,16524.0,14860.0,14452.0,-6720.0,9380.0,-17280.0,-4228.0,-752.0,-2004.0,-466.0,1157.0,1826.0,1103.0,3580.0,461.0,213.0,-152.0,-227.0
1749632469.175034,12.696,-3453.810270584854,-3448.160230149058,-3449.7588269125017,-313.1760963113423,-3487.521179395458,-3449.0984066246037,-3463.2614743872255,-3456.5089017461423,2144,16408.0,14872.0,14448.0,-6668.0,9432.0,-17220.0,-4204.0,-816.0,-2092.0,-495.0,1192.0,1817.0,1054.0,3545.0,474.0,202.0,-148.0,-253.0
1749632469.2250218,12.746,-3452.8925761303394,-3465.9371257200396,-3444.9635361836595,-315.2402843821388,-3479.2089757870403,-3456.3440464549117,-3463.2644717561566,-3465.5444703900184,2157,16392.0,14884.0,14476.0,-6692.0,9416.0,-17260.0,-4120.0,-880.0,-2028.0,-493.0,1165.0,1835.0,1082.0,3610.0,462.0,205.0,-142.0,-252.0
1749632469.274982,12.796,-3453.2557573325344,-3464.9479939726584,-3449.5410181034827,-312.0930470041093,-3487.114536343758,-3448.414007385255,-3462.9712291623628,-3455.022706317628,2150,16392.0,14864.0,14540.0,-6716.0,9452.0,-17204.0,-4188.0,-992.0,-1936.0,-474.0,1177.0,1828.0,1103.0,3601.0,483.0,202.0,-140.0,-257.0
1749632469.324812,12.845,-3452.886581392477,-3456.173196425819,-3444.834649319607,-316.2079349855107,-3478.4976002273083,-3456.8975605842547,-3462.7709050054436,-3466.1504384756613,2162,16384.0,14952.0,14516.0,-6696.0,9500.0,-17184.0,-3916.0,-856.0,-2004.0,-474.0,1170.0,1811.0,1062.0,3588.0,462.0,201.0,-130.0,-231.0
1749632469.375032,12.896,-3454.229902235258,-3454.941777356479,-3448.4664613415553,-318.7422104170573,-3478.305768615695,-3452.837624366596,-3464.5088794241997,-3461.166313504137,2147,16384.0,14948.0,14524.0,-6660.0,9472.0,-17276.0,-4136.0,-836.0,-2040.0,-463.0,1179.0,1801.0,1093.0,3604.0,510.0,207.0,-135.0,-265.0
1749632469.425066,12.946,-3452.9770020219094,-3466.8383346454307,-3444.6962707872713,-316.147488045393,-3478.0210185672067,-3456.8126351311967,-3462.96873135492,-3465.793252011329,2155,16416.0,14852.0,14480.0,-6760.0,9408.0,-17260.0,-4160.0,-688.0,-1824.0,-490.0,1177.0,1832.0,1095.0,3633.0,468.0,204.0,-135.0,-245.0
1749632469.4750552,12.996,-3453.9046877061946,-3476.471878391132,-3448.6712815518717,-317.7875484123884,-3478.5965134020466,-3452.077791342472,-3464.282578069875,-3459.5862005157705,2152,16464.0,14972.0,14408.0,-6688.0,9480.0,-17236.0,-4060.0,-736.0,-1860.0,-468.0,1171.0,1812.0,1056.0,3563.0,483.0,215.0,-145.0,-250.0
1749632469.5249238,13.045,-3452.866099371445,-3457.7423190614363,-3444.569881730661,-317.0297136342184,-3477.5584246287854,-3457.4700580501626,-3462.7474256154806,-3466.4231990484236,2157,16428.0,14936.0,14436.0,-6680.0,9496.0,-17208.0,-4084.0,-840.0,-2104.0,-480.0,1174.0,1800.0,1120.0,3630.0,466.0,196.0,-131.0,-252.0
1749632469.574979,13.096,-3454.2259057433494,-3454.376773312899,-3448.7032534871405,-317.97538353209296,-3479.6845583241657,-3452.2726203230163,-3463.8429639599276,-3460.10224753347,2149,16456.0,14908.0,14416.0,-6692.0,9432.0,-17124.0,-4144.0,-752.0,-2056.0,-489.0,1161.0,1822.0,1065.0,3558.0,455.0,216.0,-133.0,-241.0
1749632469.625026,13.146,-3453.0244603633237,-3467.6855909300552,-3444.5159290898955,-316.803911841382,-3476.8015889735925,-3457.217779498432,-3462.594060238488,-3465.9735937087053,2153,16380.0,14940.0,14444.0,-6716.0,9376.0,-17232.0,-4252.0,-768.0,-2104.0,-489.0,1188.0,1810.0,1073.0,3596.0,465.0,197.0,-152.0,-247.0
1749632469.6750221,13.196,-3453.8976938453548,-3475.206489140569,-3448.629318386831,-317.0486969707843,-3479.7664864082917,-3451.719605755163,-3463.7315617479753,-3458.6210477198424,2146,16388.0,14860.0,14448.0,-6684.0,9416.0,-17252.0,-4180.0,-944.0,-2080.0,-464.0,1194.0,1818.0,1081.0,3644.0,464.0,209.0,-150.0,-239.0
1749632469.725014,13.246,-3453.0069757112237,-3458.980731991617,-3444.5304163730643,-317.56174661955197,-3476.3265059979567,-3457.6573936083782,-3462.3452786171765,-3466.633014873625,2157,16432.0,14868.0,14436.0,-6644.0,9404.0,-17324.0,-4128.0,-884.0,-2088.0,-483.0,1168.0,1815.0,1074.0,3602.0,461.0,200.0,-139.0,-256.0
1749632469.775035,13.296,-3454.103513178648,-3452.8775892856825,-3449.034462754066,-316.84887237535384,-3480.7751010537268,-3451.5452587956497,-3463.6306503272826,-3459.4747983038183,2152,16348.0,14936.0,14480.0,-6688.0,9440.0,-17224.0,-4080.0,-772.0,-1996.0,-478.0,1193.0,1808.0,1096.0,3608.0,463.0,194.0,-158.0,-243.0
1749632469.824973,13.346,-3452.943531402175,-3468.346011217953,-3444.3790492420253,-317.31696149014965,-3475.962825234273,-3457.649400624561,-3462.6335255960853,-3466.2823227086446,2159,16444.0,14916.0,14496.0,-6672.0,9460.0,-17252.0,-4240.0,-776.0,-2116.0,-457.0,1190.0,1838.0,1091.0,3658.0,476.0,197.0,-129.0,-232.0
1749632469.8750029,13.396,-3453.4890525476994,-3474.0340183268804,-3448.9190640502056,-315.908198092365,-3481.034373466298,-3450.7294748848053,-3463.378371775552,-3457.6673848381497,2148,16400.0,14884.0,14476.0,-6668.0,9464.0,-17276.0,-4160.0,-944.0,-2152.0,-493.0,1166.0,1833.0,1059.0,3550.0,457.0,204.0,-139.0,-255.0
1749632469.92503,13.446,-3453.060428790501,-3460.28808440722,-3444.375552311605,-318.3700371080681,-3475.5062260337145,-3457.9671217312957,-3461.994086890708,-3466.797870164856,2155,16372.0,14884.0,14424.0,-6744.0,9464.0,-17280.0,-4140.0,-964.0,-2124.0,-473.0,1173.0,1828.0,1093.0,3659.0,466.0,205.0,-134.0,-258.0
1749632469.975029,13.496,-3453.7388332919877,-3451.914434735708,-3448.917065804251,-315.99612091435444,-3481.9695525729126,-3450.6430507472814,-3462.805874309644,-3458.392248558074,2143,16420.0,14764.0,14448.0,-6660.0,9472.0,-17228.0,-4064.0,-772.0,-2072.0,-479.0,1178.0,1849.0,1082.0,3568.0,470.0,205.0,-145.0,-258.0
1749632470.025028,13.546,-3452.972006407023,-3469.2477197048333,-3444.4115207387827,-317.90944141560095,-3475.05162507911,-3457.763300643957,-3462.1769263955266,-3466.3142946439143,2158,16496.0,14888.0,14532.0,-6776.0,9420.0,-17224.0,-4100.0,-816.0,-1932.0,-474.0,1174.0,1843.0,1092.0,3583.0,483.0,198.0,-143.0,-233.0
1749632470.075026,13.596,-3453.4570806124307,-3471.6705929244267,-3448.992499589026,-314.7277342948597,-3482.1144254045994,-3449.9671440532375,-3463.071141460078,-3457.1848084401854,2150,16552.0,14836.0,14564.0,-6688.0,9444.0,-17280.0,-4176.0,-916.0,-1992.0,-468.0,1169.0,1808.0,1066.0,3578.0,458.0,180.0,-138.0,-234.0
1749632470.1239948,13.645,-3453.120875730619,-3461.078890243636,-3444.394535648171,-319.07242056100614,-3474.9352272522724,-3458.141968252297,-3461.524499091446,-3467.164048735982,2160,16328.0,14888.0,14408.0,-6580.0,9432.0,-17180.0,-4084.0,-812.0,-2000.0,-475.0,1157.0,1829.0,1100.0,3626.0,487.0,196.0,-134.0,-225.0
1749632470.175026,13.696,-3453.7093591641615,-3449.6104571503947,-3449.2672584077427,-315.3616778238628,-3483.1899812895035,-3449.9386690483893,-3462.862324757853,-3457.949637079196,2145,16288.0,14860.0,14404.0,-6692.0,9488.0,-17164.0,-4204.0,-772.0,-1976.0,-470.0,1204.0,1802.0,1080.0,3610.0,477.0,216.0,-131.0,-257.0
1749632470.225024,13.746,-3452.00485536514,-3462.075015851857,-3445.128391474889,-312.47820891180146,-3482.62647593039,-3453.5794731771316,-3462.992710306372,-3463.006198466563,2153,16344.0,14932.0,14444.0,-6560.0,9456.0,-17292.0,-4104.0,-668.0,-1964.0,-470.0,1173.0,1842.0,1083.0,3614.0,457.0,215.0,-139.0,-255.0
1749632470.2749162,13.795,-3453.144355120582,-3469.707316274323,-3448.9625258997116,-314.62832155863305,-3483.168500145495,-3449.5125430986336,-3462.6919742902487,-3456.2361411733796,2151,16416.0,14884.0,14504.0,-6672.0,9440.0,-17268.0,-4152.0,-896.0,-2076.0,-467.0,1163.0,1825.0,1098.0,3627.0,467.0,211.0,-136.0,-212.0
1749632470.3250282,13.846,-3451.704618910506,-3450.6105792505236,-3445.066445850306,-313.3519419553211,-3482.1638819919685,-3454.213416706135,-3462.9297655588107,-3464.05977364597,2154,16340.0,14896.0,14440.0,-6732.0,9448.0,-17188.0,-4156.0,-956.0,-1876.0,-494.0,1200.0,1804.0,1098.0,3646.0,482.0,212.0,-150.0,-241.0
1749632470.374784,13.895,-3453.482058686859,-3449.570492231308,-3449.2642610388116,-314.90058256990704,-3484.5357999397274,-3449.640430839709,-3462.6390207724594,-3457.241258888395,2143,16356.0,14884.0,14496.0,-6632.0,9388.0,-17264.0,-4100.0,-920.0,-2096.0,-487.0,1163.0,1800.0,1064.0,3587.0,464.0,195.0,-146.0,-226.0
1749632470.425023,13.946,-3453.376151651281,-3470.6874559149096,-3444.435499690235,-320.06504923880686,-3473.959583665083,-3457.9171655824384,-3460.980476630387,-3466.676476723132,2148,16380.0,14920.0,14380.0,-6580.0,9400.0,-17208.0,-4200.0,-888.0,-2024.0,-469.0,1184.0,1851.0,1113.0,3596.0,479.0,183.0,-151.0,-264.0
1749632470.474912,13.995,-3453.0929002872585,-3468.167667766532,-3448.8990815906623,-314.1962008710147,-3484.4938367746877,-3448.8526223722247,-3462.5316150524154,-3455.5017857851726,2139,16348.0,14880.0,14448.0,-6740.0,9508.0,-17232.0,-4060.0,-856.0,-2052.0,-474.0,1171.0,1828.0,1093.0,3553.0,476.0,214.0,-137.0,-232.0
1749632470.525047,14.046,-3453.6688946835866,-3462.2953224683192,-3444.767208518649,-321.2585016350152,-3473.9001358479422,-3458.326306441582,-3461.4255859167083,-3466.9677210709715,2143,16440.0,14796.0,14516.0,-6692.0,9424.0,-17208.0,-4148.0,-924.0,-1964.0,-489.0,1173.0,1829.0,1068.0,3572.0,495.0,208.0,-164.0,-234.0
1749632470.574479,14.095,-3453.2392718034116,-3448.1492397963093,-3449.249274194154,-314.57986409424115,-3485.5564040608883,-3449.0979070631156,-3462.56508567215,-3456.6937394969154,2142,16276.0,15784.0,13368.0,-6688.0,10296.0,-16480.0,-3384.0,2520.0,-1020.0,-469.0,-3301.0,707.0,1086.0,3536.0,452.0,209.0,-160.0,31.0
1749632470.6346629,14.155,-3454.5441264115725,-3460.500897601354,-3450.2409037489774,-315.9886274920258,-3488.0317312367833,-3451.129623637155,-3463.75803850687,-3457.0674114903704,2150,16408.0,15164.0,14460.0,-6728.0,10288.0,-17384.0,-4084.0,-392.0,-2148.0,-477.0,-2522.0,624.0,1077.0,3315.0,518.0,204.0,-340.0,-120.0
1749632470.6741781,14.195,-3452.7651879507525,-3466.399220096972,-3448.7881789401986,-313.37841871421557,-3485.444002725959,-3448.4284946684234,-3462.391238274126,-3455.139603705955,2155,16352.0,13944.0,14432.0,-6612.0,10312.0,-17168.0,-4148.0,-1108.0,-2488.0,-498.0,1401.0,157.0,1085.0,4019.0,167.0,-34.0,187.0,-126.0
1749632470.725023,14.246,-3451.946906232465,-3454.131988183497,-3444.389540033286,-315.3137199209595,-3479.601131555573,-3455.2874739065733,-3462.3392838793143,-3464.676232522873,2161,16416.0,13856.0,13364.0,-6536.0,11484.0,-17080.0,-4624.0,-720.0,-2972.0,3338.0,11338.0,2275.0,1084.0,3861.0,865.0,-393.0,-1683.0,-420.0
1749632470.774851,14.295,-3452.8720941093084,-3447.8215274598033,-3448.9565311618485,-313.54027663651425,-3486.2677796206212,-3448.488941608541,-3462.3802479213773,-3455.8284989987014,2157,16308.0,14572.0,14412.0,-6628.0,9568.0,-17424.0,-4288.0,-892.0,-2388.0,-478.0,1200.0,1835.0,1064.0,3656.0,448.0,136.0,-96.0,-425.0
1749632470.82478,14.345,-3451.841498758375,-3465.4425598463486,-3443.9574193456674,-315.1603545439666,-3478.591018225672,-3455.582714746322,-3461.906663630207,-3464.701710158791,2155,16460.0,14776.0,14528.0,-6640.0,9528.0,-17256.0,-4132.0,-972.0,-1984.0,-452.0,1217.0,1806.0,1063.0,3654.0,458.0,224.0,-125.0,-248.0
1749632470.8748171,14.395,-3452.560867301925,-3464.3545149242295,-3448.8561193026444,-312.8079194942617,-3486.064458094771,-3447.9469173934363,-3462.2263829828958,-3454.118500023306,2140,16452.0,15240.0,14268.0,-6680.0,9364.0,-17148.0,-4100.0,-732.0,-2068.0,-482.0,1189.0,1880.0,1113.0,3844.0,596.0,222.0,275.0,55.0
1749632470.9250188,14.446,-3452.051814145066,-3455.6781309906396,-3444.0398469912825,-316.4622117831959,-3478.309265546115,-3455.83948935145,-3462.137960599418,-3465.170298835075,2152,16352.0,14780.0,14380.0,-6656.0,9432.0,-17260.0,-4244.0,-860.0,-2148.0,-486.0,1181.0,1827.0,1052.0,3603.0,484.0,234.0,-128.0,-245.0
1749632470.97502,14.496,-3453.566484578429,-3455.6026972058653,-3447.75258797438,-319.46307764507264,-3477.149283769641,-3452.4189918391694,-3463.952367925926,-3460.8625801190833,2149,16508.0,14840.0,14516.0,-6720.0,9468.0,-17052.0,-4144.0,-872.0,-2060.0,-484.0,1192.0,1870.0,1064.0,3584.0,470.0,177.0,-249.0,-239.0
1749632471.0250041,14.546,-3452.1602189880873,-3466.5291060840023,-3443.8040539686745,-315.96814547099416,-3477.6123772695514,-3455.8015226783186,-3461.8741921334495,-3464.9090281765493,2159,16452.0,14848.0,14380.0,-6624.0,9444.0,-17248.0,-4164.0,-800.0,-1984.0,-480.0,1187.0,1821.0,1094.0,3614.0,475.0,219.0,-134.0,-237.0
1749632471.075021,14.596,-3452.2316562809533,-3462.673490515171,-3448.417504315675,-311.64693859481076,-3486.8157985735893,-3447.631194532656,-3462.1499500751434,-3454.083031157616,2153,16436.0,14828.0,14416.0,-6700.0,12176.0,-17172.0,-4040.0,-344.0,-2008.0,-494.0,3755.0,1839.0,1085.0,3491.0,487.0,205.0,-401.0,-201.0
1749632471.125034,14.646,-3452.009351418537,-3457.0943878107532,-3443.99138952689,-316.9502833575348,-3477.110817535021,-3456.429971030947,-3461.983596099448,-3465.7622791990375,2149,16432.0,14304.0,14480.0,-6832.0,10000.0,-17480.0,-4052.0,-940.0,-2040.0,-487.0,1359.0,1823.0,1092.0,3603.0,445.0,168.0,-76.0,-128.0
1749632471.175019,14.696,-3452.3990093796265,-3446.5011864454964,-3448.7137442784006,-312.189961932893,-3487.7344921510803,-3448.098284524475,-3462.4976448711927,-3454.969752799839,2133,16324.0,14908.0,14608.0,-6596.0,9436.0,-17088.0,-4164.0,-892.0,-1840.0,-472.0,1222.0,1815.0,1085.0,3553.0,501.0,221.0,-175.0,-153.0
1749632471.225023,14.746,-3452.2086764524793,-3466.9822083541403,-3443.7451057130224,-316.7999153494734,-3476.3494858264307,-3456.3445460164007,-3462.1744285880836,-3465.2117624386265,2140,16320.0,14904.0,14416.0,-6712.0,9412.0,-17236.0,-4024.0,-860.0,-2048.0,-476.0,1164.0,1820.0,1090.0,3618.0,454.0,203.0,-122.0,-294.0
1749632471.275038,14.796,-3453.3471770849437,-3475.115568949648,-3448.0488279371057,-317.6971277829561,-3478.5895195412063,-3451.0976517018853,-3463.2235077140936,-3458.1084976325624,2143,16392.0,14856.0,14480.0,-6620.0,10580.0,-17212.0,-4116.0,-280.0,-2032.0,-470.0,3379.0,1826.0,1071.0,3423.0,515.0,227.0,-526.0,-262.0
1749632471.3250198,14.846,-3452.2156703133187,-3457.865710749115,-3443.776578086803,-318.11875767931434,-3476.024271297368,-3456.79714872505,-3461.989590837311,-3465.5959252233415,2152,16440.0,16208.0,14528.0,-6664.0,7732.0,-16992.0,-4108.0,-3596.0,-1692.0,-500.0,890.0,2289.0,1051.0,3250.0,295.0,291.0,-441.0,-987.0
1749632471.375026,14.896,-3453.374153405327,-3453.417115693345,-3448.141246812492,-317.93242124407544,-3479.7100359600827,-3450.9712626452756,-3463.1795463030985,-3458.998216643717,2156,16432.0,14912.0,14556.0,-6720.0,9320.0,-17104.0,-4080.0,-1008.0,-2004.0,-447.0,793.0,1780.0,1071.0,3763.0,458.0,228.0,129.0,-287.0
1749632471.4250329,14.946,-3452.3605431450064,-3468.060262046488,-3443.690653510768,-317.6911330450932,-3475.4497755855054,-3456.7796640729503,-3461.2697227322724,-3465.5409734595983,2208,16476.0,15308.0,14452.0,-6664.0,9632.0,-17160.0,-4192.0,-468.0,-1840.0,-443.0,88.0,1810.0,1089.0,3008.0,383.0,262.0,202.0,-236.0
1749632471.474427,14.995,-3453.0459415073324,-3473.7437731020177,-3448.0817989953516,-317.03021319570695,-3479.9987825004796,-3450.4307371146365,-3462.655006740094,-3456.9460180486462,2143,16480.0,14640.0,14508.0,-6596.0,9264.0,-17184.0,-4036.0,-1060.0,-1848.0,-449.0,1081.0,1798.0,1065.0,3256.0,386.0,198.0,-46.0,-248.0
1749632471.524665,15.045,-3452.3785273585945,-3459.322931611291,-3443.6152197259926,-318.99548809176537,-3474.974193048381,-3457.2772273155724,-3461.3416595866274,-3466.18241041093,2149,16356.0,14272.0,14304.0,-6440.0,9252.0,-16916.0,-4196.0,-868.0,-1924.0,-498.0,176.0,1875.0,1068.0,3711.0,520.0,240.0,177.0,34.0
1749632471.575016,15.096,-3453.255257771046,-3451.73459259982,-3448.416505192698,-317.35093167137285,-3480.9229712543456,-3450.406758163185,-3462.5575922498215,-3458.0830199966454,2159,16372.0,14216.0,14304.0,-6464.0,9592.0,-17004.0,-4180.0,-1224.0,-2200.0,-485.0,-869.0,1782.0,1077.0,3105.0,567.0,206.0,-241.0,-135.0
1749632471.624822,15.145,-3452.672769075366,-3469.0154236126455,-3443.581749106258,-318.89957228595875,-3474.7813623137904,-3457.3221878495438,-3461.780274573597,-3465.539974336621,2164,16364.0,14988.0,14756.0,-6580.0,9364.0,-17332.0,-4168.0,-1084.0,-1972.0,-460.0,1175.0,1823.0,1083.0,3068.0,418.0,221.0,47.0,-301.0
1749632471.6749282,15.195,-3453.8562302418027,-3472.503361925884,-3448.6912640114147,-316.66003813267207,-3480.204102272284,-3449.987126512781,-3462.5750769019223,-3455.798525309387,2173,16352.0,14860.0,14484.0,-6536.0,9400.0,-17168.0,-4152.0,-952.0,-1944.0,-508.0,1146.0,1805.0,1056.0,3459.0,423.0,296.0,-36.0,-250.0
1749632471.724828,15.245,-3454.1929346851034,-3461.117356478257,-3443.878488630472,-319.5320171304962,-3474.174894666659,-3457.271732139198,-3460.4729221579937,-3466.2388608591386,2163,16352.0,14860.0,14312.0,-6716.0,9428.0,-17036.0,-4088.0,-1040.0,-2032.0,-510.0,1146.0,1806.0,1116.0,3731.0,514.0,188.0,-208.0,-223.0
1749632471.775014,15.296,-3454.3258180410644,-3451.4773184332034,-3448.5978460130505,-316.9777592394065,-3481.2152147251622,-3450.1349967133992,-3462.443692230426,-3456.732705293024,2165,16408.0,15004.0,14440.0,-6684.0,9388.0,-17100.0,-4220.0,-1036.0,-2156.0,-497.0,1179.0,1773.0,1066.0,3748.0,481.0,197.0,-227.0,-229.0
1749632471.825019,15.346,-3451.729097423446,-3462.0055768049447,-3444.422011530043,-312.4901983875273,-3482.0704639936043,-3452.6103238892942,-3462.373254060537,-3462.54410408963,2144,16372.0,14952.0,14472.0,-6664.0,9376.0,-17212.0,-4068.0,-952.0,-1992.0,-469.0,1167.0,1748.0,1084.0,3801.0,476.0,205.0,-210.0,-199.0
1749632471.8750038,15.396,-3454.356790853356,-3461.9471281107817,-3448.9635250226884,-316.528153899688,-3481.5808937348,-3449.7838049869306,-3462.1469527062122,-3456.1207424695185,2148,16332.0,14864.0,14552.0,-6692.0,9348.0,-17176.0,-3984.0,-1160.0,-1924.0,-456.0,1184.0,1764.0,1099.0,3994.0,509.0,211.0,-227.0,-240.0
1749632471.925018,15.446,-3451.661157061,-3452.265126900688,-3444.293624227479,-313.25602614951447,-3481.4485099403273,-3452.9620151772515,-3462.611045329099,-3462.756417722275,2141,16408.0,14864.0,14420.0,-6652.0,9280.0,-17152.0,-4156.0,-908.0,-1956.0,-481.0,1195.0,1812.0,1069.0,4079.0,462.0,175.0,-393.0,-251.0
1749632471.975018,15.496,-3452.9859941287036,-3449.373165443321,-3448.4215008075835,-315.8892147557992,-3483.244933053247,-3449.1753390938447,-3462.178425079993,-3455.924414804508,2138,16344.0,14792.0,14516.0,-6652.0,9440.0,-17332.0,-4196.0,-872.0,-1956.0,-474.0,1203.0,1801.0,1097.0,3704.0,475.0,205.0,-200.0,-253.0
1749632472.025032,15.546,-3452.786169533273,-3469.9461066658623,-3443.90396626639,-320.32332252840075,-3473.5654296505963,-3457.5564821876865,-3460.8445959054943,-3465.7333046327,2148,16416.0,14796.0,14356.0,-6592.0,9440.0,-17204.0,-4216.0,-1044.0,-2236.0,-485.0,1189.0,1813.0,1110.0,3592.0,486.0,204.0,-271.0,-250.0
1749632472.0750341,15.596,-3452.392515080275,-3468.1152138102307,-3448.349563953229,-314.69975885149944,-3483.619104608191,-3448.4030170325063,-3461.7473035153516,-3455.2265274049673,2138,16376.0,14908.0,14452.0,-6692.0,9520.0,-17168.0,-4076.0,-736.0,-2076.0,-445.0,1410.0,1833.0,1105.0,3575.0,439.0,206.0,-167.0,-237.0
1749632472.125016,15.646,-3451.27499603033,-3451.179080224523,-3444.115280776057,-314.70475446638517,-3480.5832694421138,-3454.080533350174,-3462.350274232063,-3463.465795036053,2154,16500.0,14960.0,14508.0,-6668.0,9328.0,-17304.0,-4160.0,-744.0,-2128.0,-486.0,1226.0,1826.0,1055.0,3531.0,483.0,203.0,-187.0,-235.0
1749632472.175025,15.696,-3452.5488778261993,-3448.378538519566,-3448.3845332574288,-314.85162554402655,-3484.575265297325,-3448.681272781643,-3461.9756031156303,-3456.071785443638,2153,16384.0,14972.0,14476.0,-6696.0,9360.0,-17204.0,-4112.0,-804.0,-1992.0,-465.0,1215.0,1811.0,1065.0,3576.0,466.0,194.0,-148.0,-244.0
1749632472.225019,15.746,-3451.402384209917,-3463.6276529583515,-3443.9589180301327,-314.41450924152247,-3479.6865565701196,-3454.097518440785,-3462.1099851560575,-3463.2120177998563,2155,16260.0,14892.0,14500.0,-6624.0,9508.0,-17156.0,-4228.0,-1004.0,-1972.0,-455.0,1218.0,1828.0,1087.0,3615.0,467.0,226.0,-128.0,-260.0
1749632472.2750132,15.796,-3452.094276871595,-3465.9785893235908,-3448.3360757930373,-313.91294950699205,-3484.458867470487,-3447.7445949905627,-3461.773780274246,-3454.4307259536654,2152,16420.0,14876.0,14508.0,-6688.0,9364.0,-17176.0,-4048.0,-952.0,-1940.0,-473.0,1223.0,1846.0,1109.0,3603.0,472.0,206.0,-145.0,-255.0
1749632472.3249311,15.845,-3451.2335324267788,-3452.7427076837666,-3443.8854824913124,-315.62894322025096,-3479.199983680246,-3454.5676058015356,-3461.9616153939505,-3463.762534560267,2156,16444.0,14852.0,14548.0,-6680.0,9448.0,-17232.0,-4140.0,-824.0,-1916.0,-480.0,1224.0,1798.0,1082.0,3601.0,489.0,199.0,-139.0,-253.0
1749632472.375013,15.896,-3452.5963361676136,-3455.365405498791,-3446.7839382480306,-320.35629358664676,-3475.3978211906933,-3452.326572963783,-3464.128713131394,-3461.2287586902094,2151,16508.0,14840.0,14424.0,-6660.0,9460.0,-17264.0,-4028.0,-728.0,-2016.0,-480.0,1205.0,1816.0,1079.0,3620.0,466.0,187.0,-139.0,-236.0
1749632472.424911,15.945,-3451.4588346581263,-3464.64925620249,-3443.750101327908,-315.3357006264568,-3478.448643201428,-3454.595581244896,-3461.3876192435764,-3463.5876880392657,2154,16448.0,14752.0,14400.0,-6684.0,9468.0,-17208.0,-4216.0,-948.0,-2044.0,-461.0,1182.0,1818.0,1073.0,3608.0,474.0,204.0,-134.0,-254.0
1749632472.474763,15.995,-3452.02234001724,-3463.804997286796,-3448.2401599872305,-313.0472094472896,-3485.364072887787,-3447.3134734259215,-3461.689853944165,-3453.9421548178384,2147,16448.0,14804.0,14528.0,-6664.0,9392.0,-17136.0,-3996.0,-884.0,-1996.0,-488.0,1191.0,1817.0,1108.0,3604.0,465.0,199.0,-145.0,-249.0
1749632472.525017,16.046,-3451.433357022209,-3454.408745248168,-3443.5362890107976,-316.31983675895174,-3477.686811931349,-3455.3514177771112,-3461.7083377192425,-3464.1621837511284,2149,16400.0,14976.0,14504.0,-6628.0,9404.0,-17212.0,-4136.0,-940.0,-2020.0,-479.0,1209.0,1808.0,1102.0,3640.0,481.0,219.0,-154.0,-235.0
1749632472.574903,16.095,-3452.1422347744983,-3447.0831755796876,-3448.088293294703,-312.8883488939224,-3486.189848028403,-3447.4933155618087,-3461.7987583486747,-3454.554117641344,2143,16372.0,14896.0,14496.0,-6600.0,9404.0,-17232.0,-4196.0,-776.0,-2044.0,-473.0,1194.0,1804.0,1085.0,3574.0,470.0,192.0,-117.0,-240.0
1749632472.6250172,16.146,-3451.450841674309,-3466.025048542029,-3443.3809253878503,-316.04857487065493,-3477.0343846272685,-3455.127614230229,-3461.522001284003,-3463.7125784114096,2155,16468.0,14956.0,15520.0,-6548.0,9124.0,-17084.0,-4232.0,-976.0,-2260.0,-437.0,1195.0,-2505.0,1066.0,3583.0,63.0,255.0,-155.0,-818.0
1749632472.674649,16.195,-3451.688632942871,-3461.8966724004354,-3447.94541870897,-312.12352025491236,-3485.911092717778,-3447.0162343402185,-3461.3861205591106,-3453.3396836626152,2150,16572.0,14552.0,13864.0,-6640.0,9744.0,-17168.0,-4112.0,-940.0,-2756.0,-490.0,1158.0,2496.0,1089.0,3599.0,556.0,160.0,-132.0,-2505.0
1749632472.7246358,16.245,-3451.3229539332337,-3456.043310438789,-3443.222564395972,-317.1805812037684,-3476.4818696209036,-3455.6136875586135,-3461.2487411497523,-3464.5038838093146,2156,16408.0,14948.0,-9920.0,-6716.0,9480.0,-13324.0,-4136.0,-1056.0,-25568.0,-452.0,1147.0,-4222.0,1106.0,3599.0,6242.0,268.0,-32.0,2882.0
1749632472.774996,16.296,-3452.7257225931553,-3453.7063617952304,-3447.2325444647727,-318.80615428759506,-3477.7607470316584,-3450.9447858863814,-3462.7289418404034,-3459.307944766634,2146,15988.0,14604.0,13220.0,-5852.0,9748.0,-16576.0,-4880.0,-712.0,-3576.0,-445.0,1206.0,1687.0,1104.0,3628.0,552.0,293.0,-36.0,-828.0
1749632472.824972,16.346,-3451.5507539720243,-3466.31579332838,-3443.092678408942,-316.7829302588618,-3475.824446701937,-3455.641163440485,-3461.4555596060227,-3464.454926783434,2152,16440.0,15596.0,14416.0,-6628.0,9348.0,-16752.0,-4192.0,-172.0,-1404.0,-475.0,1195.0,2684.0,1098.0,3410.0,995.0,259.0,-292.0,1772.0
1749632472.874999,16.396,-3452.562365986391,-3474.326261797698,-3447.4258747608515,-317.86747825056057,-3477.8027101966986,-3450.5826038071637,-3462.54760102005,-3457.3886295275247,2143,16480.0,14988.0,13656.0,-6820.0,9256.0,-16348.0,-4028.0,-792.0,-3052.0,-478.0,1175.0,3148.0,1082.0,3566.0,3897.0,111.0,-73.0,1982.0
1749632472.924459,16.445,-3451.620692580425,-3456.900058391697,-3443.136639819937,-317.8260146470087,-3475.3623523250044,-3456.26761354716,-3461.1733073649775,-3464.8690632574635,2156,16316.0,14768.0,14080.0,-6760.0,8920.0,-17216.0,-4080.0,-1124.0,-2200.0,-478.0,1402.0,1943.0,1071.0,3591.0,484.0,186.0,-75.0,-451.0
1749632472.973901,16.494,-3451.469825010875,-3445.3876638874603,-3447.4088896702397,-311.54253024369837,-3487.018620537951,-3447.3169703563417,-3461.815743439286,-3453.848736819474,2154,16328.0,14616.0,15172.0,-6480.0,8632.0,-17248.0,-4328.0,-844.0,-1428.0,-491.0,6288.0,2820.0,1120.0,3808.0,-25.0,118.0,-99.0,-3245.0
1749632473.024767,16.545,-3451.7146101402773,-3467.376861930116,-3442.9982612876015,-317.85498921334613,-3474.899258825095,-3456.241636349754,-3460.805630109385,-3464.750667184671,2165,16208.0,15048.0,13944.0,-6460.0,9496.0,-16468.0,-4348.0,-860.0,-2460.0,-472.0,1179.0,1528.0,1101.0,3605.0,625.0,227.0,-79.0,50.0
1749632473.0750122,16.596,-3452.5323922970765,-3472.7586378465458,-3447.5957256669667,-317.23653209048894,-3479.0995718210424,-3449.71386637853,-3461.931641704636,-3456.447955244536,2149,16452.0,15412.0,14548.0,-6572.0,8968.0,-16924.0,-4068.0,-556.0,-2024.0,-487.0,1828.0,1734.0,1085.0,3520.0,575.0,148.0,-261.0,-1578.0
1749632473.12405,16.645,-3451.923426842502,-3458.4786726955977,-3443.115658237416,-319.04294643318013,-3474.512598232937,-3456.6752557218383,-3460.967488031684,-3465.4095887881026,2156,16372.0,14972.0,14424.0,-6664.0,9320.0,-16296.0,-4000.0,-900.0,-1744.0,-475.0,1706.0,989.0,1062.0,3462.0,44.0,224.0,-222.0,1886.0
1749632473.175009,16.696,-3452.7676857581955,-3451.5472570416046,-3447.8520007106067,-317.33844263415847,-3480.163138230221,-3449.7972931471218,-3462.0630263761313,-3457.1118724628536,2151,16364.0,14724.0,14392.0,-6664.0,9568.0,-17308.0,-4060.0,-1084.0,-2088.0,-501.0,1201.0,1429.0,1060.0,3691.0,1015.0,168.0,1.0,2773.0
1749632473.224991,16.746,-3450.8428753427115,-3461.112360863371,-3444.3011176498076,-312.25040887301077,-3483.1245387345,-3451.5662403781703,-3461.8716943260065,-3460.9984608439754,2157,16288.0,14732.0,14568.0,-6868.0,9540.0,-13932.0,-4096.0,-984.0,-3176.0,-512.0,1169.0,4473.0,1089.0,3735.0,-739.0,157.0,74.0,1472.0
1749632473.274966,16.796,-3452.435477368292,-3471.3848437529614,-3447.750090166937,-316.39077449032953,-3480.4718672301615,-3448.974515375437,-3461.8751912564267,-3455.604695451819,2148,16400.0,14720.0,12236.0,-6680.0,9456.0,-17504.0,-4248.0,-888.0,-2848.0,-498.0,1173.0,3353.0,1075.0,3689.0,-2728.0,259.0,-25.0,5064.0
1749632473.325005,16.846,-3450.632060394533,-3447.6296958481903,-3444.2421693941556,-313.0766835751156,-3482.3057574547242,-3452.1067659088094,-3461.864200903678,-3461.5724569943495,2152,16424.0,14808.0,14988.0,-6804.0,9580.0,-20048.0,-4080.0,-1060.0,-1760.0,-511.0,1190.0,5284.0,1091.0,3537.0,-6609.0,249.0,-195.0,-1091.0
1749632473.374667,16.895,-3452.5903414297513,-3450.4007634253217,-3447.9494152008792,-316.21143191593075,-3481.5094564419337,-3449.0309658236465,-3461.7048407888224,-3456.607315359391,2147,16340.0,15076.0,15444.0,-6624.0,9392.0,-17016.0,-4248.0,-720.0,-3192.0,-534.0,1184.0,165.0,1053.0,3580.0,-3207.0,187.0,-185.0,-6960.0
1749632473.425005,16.946,-3452.240648387748,-3468.9394902663817,-3443.128147274631,-319.1383626774982,-3473.298164254208,-3456.6762548448155,-3460.8256125689286,-3465.024426880411,2156,16296.0,14776.0,14388.0,-6668.0,9704.0,-21476.0,-4228.0,-1084.0,-2824.0,-477.0,1195.0,-957.0,1089.0,3759.0,5461.0,195.0,129.0,-7106.0
1749632473.475013,16.996,-3452.385521219435,-3470.0675001075865,-3447.866987555264,-315.38116072191724,-3481.705784106944,-3448.4489766894553,-3461.4660503972827,-3454.985239205985,2152,16416.0,15528.0,14320.0,-6612.0,8880.0,-15528.0,-4148.0,-332.0,-3672.0,-481.0,1310.0,-2204.0,1089.0,3657.0,-395.0,190.0,-56.0,-10137.0
1749632473.5249999,17.046,-3450.61207793499,-3449.315216310646,-3443.7001451790507,-313.60322138407486,-3481.10381251321,-3452.5983344135684,-3461.716830264548,-3462.431203193212,2158,16368.0,15620.0,14076.0,-6668.0,8484.0,-15036.0,-4056.0,-1096.0,-3104.0,-483.0,6471.0,-2974.0,1080.0,3280.0,2924.0,194.0,-1005.0,-14755.0
1749632473.5747771,17.095,-3452.5238997517704,-3449.6074597814627,-3448.021352055234,-315.6334392736482,-3482.6959149773015,-3448.498433276824,-3461.4425710073197,-3455.6491564243024,2148,16444.0,15572.0,13004.0,-6568.0,10868.0,-11756.0,-4096.0,-1132.0,-2344.0,212.0,2533.0,-1998.0,1086.0,3510.0,396.0,-108.0,50.0,-9262.0
1749632473.624737,17.145,-3450.7374678686224,-3462.653508055628,-3443.455360049648,-313.65067972548957,-3480.2780373725936,-3452.722225662735,-3461.5974350687784,-3462.140957968349,2156,16444.0,15264.0,13732.0,-6864.0,9232.0,-12308.0,-4180.0,-1284.0,-2564.0,557.0,1701.0,1216.0,1059.0,3521.0,2876.0,20.0,-225.0,-6891.0
1749632473.67485,17.195,-3452.077791342472,-3467.557203627491,-3447.8994590520215,-314.87660361845536,-3482.8058185047885,-3447.7895555245345,-3461.2127727225748,-3454.3258180410644,2148,16440.0,15008.0,12312.0,-6804.0,9872.0,-10688.0,-4116.0,-2236.0,-2420.0,1129.0,192.0,1358.0,1072.0,3763.0,578.0,-16.0,31.0,-3050.0
1749632473.7247272,17.245,-3450.617073549875,-3451.3319460400276,-3443.4193916224713,-314.779189128183,-3479.87938730471,-3453.35566963025,-3461.6418960412616,-3462.97572521576,2157,16456.0,14632.0,12484.0,-6692.0,9412.0,-10976.0,-4316.0,-964.0,-2272.0,-473.0,1124.0,3085.0,1101.0,3724.0,1208.0,230.0,153.0,5422.0
1749632473.774994,17.296,-3452.071796604609,-3447.870484485684,-3447.820028775338,-314.9390488045274,-3483.751488402663,-3447.9848840665677,-3461.3166815121986,-3455.324941018217,2149,16376.0,14724.0,12832.0,-6636.0,9484.0,-14400.0,-4120.0,-916.0,-2880.0,-464.0,1018.0,13574.0,1038.0,3971.0,-4036.0,245.0,355.0,18904.0
1749632473.824904,17.345,-3450.7349700611794,-3463.2604752642483,-3443.1296459590967,-314.39852327388803,-3478.839300285494,-3453.3986319182673,-3460.9315196045063,-3462.7903879034984,2152,16396.0,15188.0,14988.0,-6888.0,9296.0,-15284.0,-4156.0,-676.0,-3052.0,-451.0,379.0,5837.0,1075.0,3305.0,717.0,329.0,-445.0,13263.0
1749632473.87499,17.396,-3451.8404996353984,-3465.799246749192,-3447.7905546475117,-313.7905569422909,-3483.8773778977848,-3447.3099764955014,-3461.0169446190534,-3453.738333730499,2149,16208.0,14820.0,17772.0,-6068.0,9712.0,-20108.0,-4520.0,-1044.0,-5116.0,-446.0,1344.0,463.0,1069.0,3040.0,-5211.0,401.0,-739.0,5495.0
1749632473.924809,17.445,-3450.736468745645,-3453.2272823276858,-3443.1146591144393,-315.58648049372204,-3478.435155041236,-3453.991611405207,-3460.833105991257,-3463.6501332253374,2156,16396.0,14544.0,13992.0,-6636.0,9160.0,-18624.0,-4040.0,-1092.0,-4428.0,-480.0,1622.0,4212.0,1096.0,3730.0,-1710.0,143.0,-17.0,7847.0
1749632473.974783,17.495,-3452.0118492259803,-3447.4183813385225,-3447.8485037801865,-314.26014474155244,-3484.564774506065,-3447.479327840129,-3461.2377507970036,-3454.46769350382,2152,16408.0,14848.0,15744.0,-6476.0,9372.0,-17172.0,-4164.0,-864.0,-5332.0,-477.0,1432.0,3118.0,1078.0,3629.0,-607.0,170.0,-114.0,3856.0
1749632474.024661,17.545,-3450.998238965659,-3464.59680224619,-3442.9343174170635,-315.41413178016325,-3477.5883983180997,-3454.1744509100263,-3460.9355160964146,-3463.3638844923835,2156,16380.0,15544.0,11676.0,-6656.0,8824.0,-20268.0,-4104.0,-400.0,-4792.0,-486.0,1251.0,4355.0,1082.0,3699.0,-5098.0,201.0,-48.0,8185.0
1749632474.074633,17.595,-3452.760192335867,-3476.74613764836,-3446.637566731878,-319.6039539848511,-3475.118066757091,-3451.7221035626058,-3462.4891523258866,-3458.4931599787665,2149,16444.0,14792.0,11960.0,-6652.0,9440.0,-18716.0,-4128.0,-904.0,-4648.0,-478.0,1168.0,-2558.0,1068.0,3731.0,4490.0,218.0,-98.0,-9829.0
1749632474.124801,17.645,-3451.030210900928,-3454.3952570879765,-3442.9533007536293,-316.4242451100642,-3477.123306572236,-3454.7784207497148,-3460.988969175693,-3464.0947429501703,2153,16460.0,14124.0,12560.0,-6768.0,10388.0,-18004.0,-3968.0,-1920.0,-5148.0,-462.0,2742.0,-5291.0,1079.0,3788.0,6910.0,183.0,-2.0,-14445.0
1749632474.174979,17.696,-3452.9535226319463,-3455.647657739837,-3446.6105904114947,-319.92517202200554,-3475.9967954154963,-3451.5147855448467,-3462.893297570145,-3459.4583127746955,2147,16348.0,14360.0,14804.0,-6548.0,9600.0,-16628.0,-4252.0,-1244.0,-3148.0,-452.0,1200.0,1798.0,1069.0,3619.0,7998.0,293.0,-164.0,-2911.0
1749632474.225002,17.746,-3451.190570138761,-3465.7647770064805,-3442.754475281176,-316.37029246929796,-3476.486865235789,-3454.725467231925,-3461.1508270979916,-3463.9278894129857,2154,16388.0,14720.0,15040.0,-6572.0,9460.0,-16520.0,-4276.0,-716.0,-1736.0,-462.0,1334.0,3631.0,1069.0,3683.0,7623.0,209.0,-23.0,-3791.0
1749632474.274674,17.795,-3452.6852581125804,-3475.431291810428,-3446.79143167036,-319.49604870331865,-3476.2345866840583,-3451.068677135548,-3462.5965580459306,-3457.869207679535,2152,16356.0,14508.0,14364.0,-6808.0,9756.0,-16088.0,-3976.0,-1060.0,-1736.0,-489.0,1104.0,3260.0,1067.0,3850.0,194.0,177.0,249.0,624.0
1749632474.324915,17.845,-3451.128624514177,-3455.336930493943,-3442.8094270449196,-317.97138704018437,-3476.021773489925,-3455.449831390361,-3460.555849365097,-3464.603296545541,2158,16392.0,15324.0,11940.0,-6776.0,8932.0,-16652.0,-3944.0,-592.0,-3996.0,-486.0,1191.0,11867.0,1121.0,3680.0,3794.0,190.0,-71.0,11776.0
1749632474.3750138,17.896,-3452.4454685980645,-3453.1913139005082,-3446.967776875827,-319.7513246239811,-3477.576408842374,-3450.8468718346207,-3462.550098827493,-3458.6675069382795,2149,16288.0,14828.0,14640.0,-6716.0,9456.0,-17256.0,-4068.0,-928.0,-1960.0,-466.0,1153.0,1323.0,1091.0,3663.0,298.0,239.0,-110.0,-128.0
1749632474.425013,17.946,-3451.033707831348,-3466.161928389898,-3442.6325822779636,-317.8449979835746,-3475.356357587142,-3455.5097787689897,-3460.477917772879,-3464.251105696095,2155,16396.0,14960.0,14564.0,-6644.0,9432.0,-17152.0,-4120.0,-720.0,-2136.0,-486.0,1172.0,1766.0,1092.0,3590.0,469.0,218.0,-147.0,-275.0
1749632474.475125,17.996,-3452.17670451721,-3473.7192945890774,-3447.0372159227395,-318.81464683290085,-3477.5204579556535,-3450.166968648668,-3462.2983198372503,-3456.7202162558096,2156,16436.0,14816.0,14484.0,-6616.0,9380.0,-17292.0,-4112.0,-796.0,-1992.0,-488.0,1185.0,1780.0,1080.0,3568.0,427.0,200.0,-112.0,-272.0
1749632474.5249898,18.046,-3450.4567143120425,-3444.810670368155,-3444.723746669143,-313.0502068162211,-3484.764599101495,-3450.7444617294623,-3462.055532953803,-3460.5308712906685,2157,16408.0,14800.0,14536.0,-6744.0,9360.0,-17236.0,-4180.0,-892.0,-2256.0,-452.0,1205.0,1845.0,1057.0,3562.0,480.0,207.0,-159.0,-233.0
1749632474.575,18.096,-3452.3555475301205,-3452.0053549266286,-3447.2899940359584,-318.87459421153,-3478.9147340702693,-3450.1175120612993,-3461.886681170664,-3457.690864228113,2152,16420.0,14948.0,14492.0,-6692.0,9396.0,-17100.0,-4144.0,-780.0,-2224.0,-459.0,1167.0,1809.0,1108.0,3595.0,490.0,199.0,-136.0,-221.0
1749632474.6249979,18.146,-3450.548134064452,-3460.2526155415317,-3444.4899518924894,-312.7609607143355,-3484.067710824932,-3450.879343331378,-3461.983596099448,-3459.8744474946793,2151,16580.0,14940.0,14424.0,-6840.0,9216.0,-17140.0,-3912.0,-764.0,-2028.0,-473.0,1180.0,1798.0,1106.0,3575.0,465.0,182.0,-273.0,-203.0
1749632474.674599,18.195,-3452.0992724864805,-3472.358988655685,-3447.2874962285155,-318.07429670683103,-3478.831307301677,-3449.548011964323,-3461.9446303033387,-3456.016334118406,2147,16268.0,14696.0,14412.0,-6952.0,9476.0,-17136.0,-4148.0,-844.0,-2032.0,-493.0,1174.0,1784.0,1106.0,3921.0,446.0,121.0,102.0,-266.0
1749632474.725002,18.246,-3450.3258292020355,-3446.4317473985852,-3444.332590023588,-313.8624937966458,-3483.5126980111236,-3451.2914815594536,-3461.8941745929924,-3460.836602921677,2153,16472.0,15916.0,14576.0,-7756.0,9936.0,-17208.0,-3944.0,-272.0,-1988.0,-464.0,1134.0,1829.0,1099.0,3673.0,455.0,120.0,-101.0,-237.0
1749632474.775002,18.296,-3452.290104975117,-3450.7739358572885,-3447.436365552111,-318.22866120680106,-3480.2395711379736,-3449.335698331678,-3461.6149197208783,-3457.0714079822787,2149,17080.0,14264.0,14464.0,-8244.0,8876.0,-17296.0,-5272.0,-1652.0,-1884.0,-162.0,1193.0,1815.0,1099.0,3707.0,552.0,1626.0,0.0,-133.0
1749632474.824988,18.346,-3451.5457583571383,-3467.7395435708218,-3442.6140985028865,-319.88820447185094,-3473.5339572768157,-3456.324563556858,-3460.4204682016934,-3464.6957154209276,2158,16544.0,16756.0,14504.0,-6452.0,7560.0,-17272.0,-4268.0,-2588.0,-1776.0,-826.0,-716.0,927.0,1063.0,10408.0,704.0,283.0,-1895.0,246.0
1749632474.8744059,18.395,-3452.0138474719342,-3470.929743236869,-3447.576242768913,-317.25901235747483,-3480.2980198321366,-3448.7257337541264,-3461.4645517128174,-3455.5152739453642,2162,15704.0,15628.0,13952.0,-5180.0,10240.0,-17084.0,-5140.0,480.0,-2256.0,1337.0,5877.0,1657.0,1116.0,3490.0,638.0,1231.0,6569.0,98.0
1749632474.924582,18.445,-3450.384277896199,-3447.515795828795,-3443.7925640544368,-314.1007846266967,-3482.024504336656,-3451.704618910506,-3461.7428074619543,-3461.4915280332007,2160,16340.0,15088.0,14292.0,-6264.0,11132.0,-17100.0,-4772.0,364.0,-2096.0,-688.0,3370.0,1844.0,1104.0,875.0,400.0,131.0,1089.0,-358.0
1749632474.974645,18.495,-3452.0807887114033,-3449.905198428655,-3447.5347791653608,-317.142114969148,-3481.421034058456,-3448.7197390162632,-3461.3561468697962,-3456.3805144435782,2152,16584.0,14540.0,14516.0,-6536.0,8876.0,-17292.0,-3852.0,1908.0,-2064.0,199.0,4528.0,1502.0,1093.0,3610.0,535.0,241.0,427.0,-105.0
1749632475.024899,18.545,-3450.3732875434503,-3461.5404850590808,-3443.4923275998026,-313.5477700588429,-3481.2277037623767,-3451.9349167567393,-3461.5869442775183,-3460.893053369886,2154,16504.0,15000.0,14552.0,-6764.0,9080.0,-17316.0,-4068.0,812.0,-2076.0,-509.0,1169.0,1792.0,1101.0,2540.0,411.0,60.0,-99.0,-306.0
1749632475.074978,18.596,-3451.8235145447866,-3468.638754250259,-3447.5422725876892,-315.96215073313124,-3481.679806909538,-3448.0398358303114,-3461.216269652995,-3454.7074830183365,2143,16056.0,14404.0,13640.0,-5828.0,10140.0,-17204.0,-6528.0,-804.0,-2624.0,6295.0,7986.0,1853.0,1110.0,15809.0,1119.0,-601.0,-287.0,73.0
1749632475.125003,18.646,-3450.426241061239,-3448.608836365799,-3443.479838562588,-314.4884443418317,-3480.705162445326,-3452.463952373141,-3461.159819204786,-3462.177925518504,2127,16780.0,17064.0,14368.0,-6880.0,8116.0,-17696.0,-836.0,1292.0,-2160.0,-9130.0,4911.0,2399.0,1048.0,4453.0,2631.0,2216.0,-5499.0,328.0
1749632475.174337,18.695,-3452.103268978389,-3449.0209745938746,-3447.6906423497962,-316.06506039977796,-3482.6609456731017,-3448.097784962986,-3460.988969175693,-3455.772548111981,2035,16320.0,12436.0,14756.0,-6592.0,9660.0,-16868.0,748.0,-4068.0,-1548.0,-7132.0,2674.0,6351.0,1075.0,3173.0,-555.0,-985.0,3056.0,-927.0
1749632475.224587,18.745,-3450.2673805078725,-3462.676487884103,-3443.266026245478,-314.24066184349795,-3479.9952855700594,-3452.6343028407455,-3461.1563222743657,-3461.949126356736,2094,15516.0,15676.0,14264.0,-5936.0,10140.0,-15560.0,-1028.0,3512.0,-4312.0,-4733.0,168.0,5906.0,1098.0,4177.0,1611.0,-235.0,-1747.0,-337.0
1749632475.274733,18.795,-3451.6726469752366,-3466.499132394687,-3447.5692489080725,-315.1438690148436,-3482.830796579218,-3447.3569352754275,-3461.089880596385,-3453.999604389024,2179,13424.0,15036.0,14884.0,-4344.0,9548.0,-20664.0,-2444.0,2156.0,1448.0,-8041.0,-915.0,1670.0,1107.0,3498.0,359.0,966.0,424.0,-321.0
1749632475.324992,18.846,-3450.46820422628,-3450.295855512721,-3443.183099038374,-315.60246646135647,-3479.3838223080425,-3453.099894148099,-3461.11635735528,-3462.773902374375,2167,15916.0,14844.0,14472.0,-15020.0,9328.0,-16904.0,3140.0,1228.0,-2684.0,-13703.0,2788.0,4588.0,1073.0,4355.0,177.0,-1813.0,-1098.0,-750.0
1749632475.374995,18.896,-3451.902445259982,-3456.0178328028715,-3445.636445508772,-321.13211257840544,-3473.543448945099,-3452.0648027437687,-3463.160562966533,-3460.8450954669825,2155,16572.0,13520.0,14616.0,-7988.0,10880.0,-17232.0,64.0,592.0,-1852.0,-1350.0,-2703.0,51.0,1086.0,2880.0,-458.0,-153.0,-2883.0,-533.0
1749632475.4248698,18.945,-3450.3288265709675,-3463.1360844535925,-3443.007253394396,-315.0934133044974,-3478.64097437453,-3453.374652966816,-3461.030932340733,-3462.457679952107,2143,17044.0,13800.0,14224.0,-7364.0,10672.0,-17256.0,-1704.0,1324.0,-2508.0,-560.0,746.0,1841.0,1059.0,2462.0,801.0,303.0,-11.0,38.0
1749632475.474766,18.995,-3451.389895172703,-3465.2762058706526,-3447.337452377373,-314.29361536128704,-3483.816431396178,-3446.7819400020767,-3460.855086696754,-3453.3197012030723,2147,20864.0,14096.0,14172.0,-2816.0,10156.0,-17276.0,4236.0,1128.0,-2516.0,916.0,1695.0,1935.0,1101.0,3099.0,-788.0,5983.0,1248.0,-780.0
1749632475.524976,19.046,-3450.405259478719,-3452.6432949475397,-3442.734492821633,-316.45072186895874,-3478.1004488438903,-3453.816265322717,-3460.7641665058336,-3463.2519827189426,2140,14816.0,14324.0,14588.0,-6620.0,10260.0,-17092.0,-3580.0,992.0,-1808.0,-4332.0,1155.0,1805.0,1069.0,3377.0,280.0,-4331.0,544.0,-348.0
1749632475.575011,19.096,-3451.5907188911106,-3446.6740347205446,-3447.5342796038717,-314.91457029158715,-3484.8090600739793,-3447.118644445377,-3460.940511711301,-3454.3413044472104,2142,17788.0,14460.0,14436.0,-5740.0,9996.0,-17168.0,-1460.0,1092.0,-2124.0,1494.0,1216.0,1844.0,1071.0,3186.0,552.0,-535.0,1391.0,-213.0
1749632475.624622,19.145,-3450.661534522359,-3464.236618412926,-3442.6735463200266,-316.40975782689543,-3477.2621846660595,-3453.7743021576766,-3460.600809899069,-3462.6714922692167,2155,17048.0,14600.0,14476.0,-10052.0,9592.0,-17296.0,-3908.0,812.0,-1928.0,3726.0,1137.0,1814.0,1108.0,3857.0,460.0,-569.0,-411.0,-256.0
1749632475.674929,19.195,-3451.2490188329243,-3462.884805024839,-3447.500309422649,-314.05132803932764,-3484.5198139720937,-3446.5606342626374,-3460.8111252857598,-3452.6972475883063,2148,16836.0,14592.0,14572.0,-6920.0,9552.0,-17320.0,-5440.0,776.0,-2008.0,716.0,1201.0,1790.0,1092.0,3734.0,451.0,1067.0,85.0,-287.0
1749632475.724978,19.246,-3450.7005003184677,-3454.086028526548,-3442.5466577019283,-317.68114181532167,-3476.748635455803,-3454.2179127595323,-3460.339039679055,-3463.660124455109,2156,15628.0,14952.0,14440.0,-6444.0,9128.0,-17252.0,-3876.0,1236.0,-2072.0,-1869.0,808.0,1806.0,1091.0,3625.0,383.0,227.0,1418.0,-270.0
1749632475.775007,19.296,-3452.1777036401872,-3454.120997830748,-3446.4622206493877,-320.88582876453745,-3475.9093721549953,-3450.9278007957696,-3462.417215471532,-3458.82886529909,2153,16748.0,15132.0,14428.0,-6572.0,9112.0,-17308.0,-3576.0,1112.0,-1964.0,-1978.0,1104.0,1820.0,1107.0,3930.0,460.0,396.0,-23.0,-242.0
1749632475.824922,19.345,-3450.7184845320567,-3465.1188440017513,-3442.449243211656,-317.4633330063025,-3476.040756826491,-3454.595581244896,-3460.134719030227,-3463.2729643014627,2142,16140.0,14784.0,14424.0,-7156.0,9476.0,-17196.0,-3672.0,1060.0,-1924.0,-1771.0,1173.0,1838.0,1103.0,3449.0,474.0,8.0,-120.0,-236.0
1749632475.875129,19.396,-3450.8578621873694,-3460.8440963440053,-3447.0352176767847,-313.3769200297499,-3485.294134279386,-3446.1634828792194,-3460.8011340559883,-3452.2906045366053,2141,16452.0,14368.0,14580.0,-6512.0,9876.0,-17376.0,-3244.0,1276.0,-1936.0,-419.0,1742.0,1809.0,1117.0,4054.0,504.0,202.0,45.0,-228.0
1749632475.925,19.446,-3450.7529542747684,-3455.2035475764924,-3442.4432484737927,-318.7636915610661,-3475.4947361194777,-3454.956264639648,-3460.1382159606474,-3463.9678543320724,2156,16596.0,14808.0,12636.0,-6184.0,9576.0,-14732.0,-3764.0,856.0,-2052.0,2035.0,2110.0,1278.0,1091.0,3393.0,604.0,564.0,-131.0,179.0
